Name:  Acmite NaFe+3 Si2O6
Type:  Mineral
Class:  Silicates
Subclass:  Inosilicates (Pyroxene Group - single chain)
Particle Size: Fine (less than 75 Micrometers)
Sample No.:  acmite.1
Owner: JHU.
Wavelength Range:  IR
Origin:  Narsarsuk, Greenland via the Smithsonian (sample no. NMNH 
95506). 
Description: The sample consisted of black radiating acicular crystals 
with some contaminating brown coating, which dissolved in dilute 
HCl.  Sample size was 2 cm x 2 cm x 1 cm.  Contamination was largely 
eliminated by hand picking and the little remaining was dissolved 
with dilute HCl.

Measurement:  Bidirectional reflectance
First Column:  X
Second Column:  Y  
X Units:  Wavelength (micrometers)
Y Units:  Reflectance (percent)
First X Value:  25.0442
Last X Value:  2.079
Number of X Values:  2287
Additional Information:  acmite1a.txt

25.0442	2.0918	
24.9238	2.043	
24.80454	1.9775	
24.68642	2.0332	
24.56942	1.9612	
24.45358	1.834	
24.33878	1.8196	
24.22504	2.0322	
24.11236	2.1067	
24.00073	2.0417	
23.89012	2.0928	
23.78053	2.1343	
23.67194	2.0591	
23.56434	2.1167	
23.45771	2.2143	
23.35205	2.3447	
23.24733	2.3528	
23.14354	2.2776	
23.04068	2.3745	
22.93873	2.5869	
22.83767	2.6304	
22.7375	2.7029	
22.63821	2.8462	
22.53978	2.9805	
22.44221	3.0203	
22.34547	3.0859	
22.24956	3.1716	
22.15448	3.2693	
22.0602	3.322	
21.96677	3.3052	
21.87408	3.2996	
21.78217	3.3027	
21.69103	3.3567	
21.60065	3.3413	
21.51102	3.3393	
21.42213	3.333	
21.33397	3.2932	
21.24653	3.2808	
21.15981	3.2725	
21.07379	3.312	
20.98847	3.2244	
20.90384	3.1362	
20.81989	3.1548	
20.73661	3.1872	
20.65399	3.2263	
20.57203	3.314	
20.49071	3.3621	
20.41004	3.3948	
20.33	3.4333	
20.25058	3.4602	
20.17178	3.4541	
20.0936	3.4841	
20.01601	3.4792	
19.93907	3.437	
19.86267	3.3765	
19.78686	3.3743	
19.71162	3.384	
19.63695	3.3201	
19.56285	3.1926	
19.4893	3.0774	
19.41631	2.9719	
19.34386	2.8503	
19.27194	2.7642	
19.20057	2.7768	
19.12971	2.8108	
19.05938	2.8039	
18.98957	2.7849	
18.92026	2.7747	
18.85146	2.7788	
18.78315	2.7139	
18.71534	2.6467	
18.64802	2.5796	
18.58118	2.5378	
18.51482	2.4868	
18.44893	2.4287	
18.3835	2.3381	
18.31854	2.2937	
18.25407	2.3181	
18.19002	2.3701	
18.12642	2.3904	
18.06326	2.4502	
18.00054	2.5337	
17.93825	2.5684	
17.87639	2.5991	
17.81496	2.657	
17.75395	2.6631	
17.69335	2.6489	
17.63317	2.6821	
17.5734	2.7122	
17.51402	2.6619	
17.45505	2.6394	
17.39648	2.6238	
17.33829	2.5825	
17.2805	2.542	
17.22309	2.4851	
17.16606	2.4231	
17.1094	2.3926	
17.05312	2.3218	
16.99721	2.2087	
16.94166	2.1006	
16.88647	1.9949	
16.83167	1.8633	
16.7772	1.7163	
16.72308	1.5935	
16.66931	1.4954	
16.61588	1.4226	
16.56279	1.3308	
16.51004	1.2676	
16.45763	1.2519	
16.40555	1.2456	
16.35379	1.2725	
16.30236	1.2673	
16.25126	1.2393	
16.20047	1.2397	
16.15	1.2419	
16.09984	1.2454	
16.05	1.2446	
16.00049	1.2695	
15.95125	1.3044	
15.90232	1.3064	
15.85369	1.2886	
15.80535	1.2744	
15.75731	1.2803	
15.70956	1.2998	
15.6621	1.3054	
15.61492	1.3303	
15.56803	1.3433	
15.52142	1.3909	
15.47509	1.4385	
15.42903	1.4355	
15.38324	1.4172	
15.33773	1.4077	
15.29248	1.4031	
15.24751	1.3806	
15.20279	1.3281	
15.15834	1.3071	
15.11414	1.3513	
15.0702	1.4355	
15.02652	1.5049	
14.98309	1.595	
14.93991	1.686	
14.897	1.7715	
14.85432	1.8477	
14.81187	1.8809	
14.76967	1.9299	
14.72771	1.9888	
14.68599	2.0269	
14.6445	2.0815	
14.60325	2.1352	
14.56223	2.1824	
14.52144	2.2278	
14.48088	2.2786	
14.44054	2.3447	
14.40042	2.4067	
14.36053	2.4209	
14.32086	2.4248	
14.28141	2.459	
14.24217	2.4924	
14.20315	2.5061	
14.16435	2.5005	
14.12575	2.4634	
14.08736	2.4517	
14.04919	2.459	
14.01121	2.4485	
13.97345	2.4329	
13.9359	2.3928	
13.89854	2.3594	
13.86138	2.3206	
13.82441	2.2605	
13.78765	2.1721	
13.75107	2.0872	
13.71469	1.9968	
13.67851	1.9004	
13.64251	1.8506	
13.6067	1.835	
13.57108	1.8713	
13.53565	1.9861	
13.5004	2.146	
13.46533	2.3108	
13.43044	2.4714	
13.39574	2.6013	
13.36121	2.7109	
13.32687	2.8018	
13.29269	2.876	
13.2587	2.9424	
13.22487	3.0203	
13.19122	3.1025	
13.15774	3.1497	
13.12443	3.1863	
13.0913	3.2373	
13.05833	3.2537	
13.02551	3.2717	
12.99287	3.2798	
12.96039	3.2622	
12.92806	3.2663	
12.8959	3.271	
12.8639	3.2331	
12.83206	3.2114	
12.80038	3.209	
12.76885	3.1899	
12.73747	3.157	
12.70625	3.1304	
12.67519	3.105	
12.64427	3.0749	
12.61351	3.0203	
12.58291	2.9802	
12.55244	2.9392	
12.52212	2.8923	
12.49194	2.8452	
12.46191	2.7939	
12.43203	2.7468	
12.40229	2.6929	
12.37269	2.6348	
12.34323	2.5779	
12.31391	2.5132	
12.28473	2.4443	
12.25568	2.3806	
12.22678	2.324	
12.19801	2.2812	
12.16937	2.2451	
12.14087	2.1877	
12.11251	2.1418	
12.08427	2.1023	
12.05617	2.0654	
12.02819	2.0564	
12.00035	2.0459	
11.97264	2.0217	
11.94505	1.9827	
11.91759	1.9656	
11.89027	1.9499	
11.86306	1.907	
11.83597	1.8899	
11.80901	1.8862	
11.78217	1.8484	
11.75545	1.8169	
11.72886	1.8079	
11.70238	1.7966	
11.67602	1.7761	
11.64978	1.7329	
11.62366	1.6885	
11.59766	1.6521	
11.57177	1.6199	
11.546	1.5898	
11.52034	1.5835	
11.49479	1.5981	
11.46936	1.6062	
11.44404	1.6145	
11.41884	1.6204	
11.39374	1.6294	
11.36875	1.6562	
11.34387	1.679	
11.31911	1.6748	
11.29445	1.6753	
11.2699	1.7073	
11.24546	1.7178	
11.22112	1.7168	
11.19688	1.7341	
11.17275	1.7576	
11.14872	1.7793	
11.12479	1.7861	
11.10097	1.7949	
11.07725	1.8074	
11.05363	1.8213	
11.03011	1.8435	
11.00669	1.8735	
10.98337	1.8901	
10.96015	1.8938	
10.93703	1.9275	
10.914	1.9663	
10.89108	1.9941	
10.86824	2.0247	
10.8455	2.0649	
10.82286	2.0886	
10.80031	2.1223	
10.77786	2.1643	
10.7555	2.2095	
10.73323	2.2561	
10.71106	2.2856	
10.68898	2.3332	
10.66699	2.3765	
10.64508	2.4372	
10.62327	2.5107	
10.60154	2.5525	
10.57991	2.5845	
10.55836	2.6245	
10.5369	2.6653	
10.51552	2.6955	
10.49424	2.7068	
10.47304	2.7063	
10.45192	2.6999	
10.43089	2.7065	
10.40994	2.7246	
10.38908	2.7317	
10.3683	2.7339	
10.34761	2.7593	
10.32699	2.7673	
10.30646	2.7693	
10.28601	2.7825	
10.26564	2.8088	
10.24536	2.845	
10.22515	2.8953	
10.20503	2.9453	
10.18498	2.9954	
10.16501	3.0403	
10.14512	3.0791	
10.1253	3.135	
10.10556	3.1863	
10.0859	3.248	
10.06632	3.321	
10.04681	3.3948	
10.02737	3.477	
10.00802	3.5852	
9.988733	3.6929	
9.969523	3.7778	
9.950387	3.8428	
9.931325	3.8838	
9.912335	3.8948	
9.893428	3.8894	
9.874583	3.8603	
9.85581	3.8105	
9.837107	3.7637	
9.818476	3.7109	
9.799915	3.6489	
9.781424	3.5852	
9.763003	3.5149	
9.744651	3.4453	
9.726368	3.4031	
9.708153	3.4346	
9.690007	3.5193	
9.671928	3.6008	
9.653917	3.6462	
9.635972	3.6875	
9.618094	3.7214	
9.600283	3.7314	
9.582537	3.741	
9.564856	3.7456	
9.547241	3.7515	
9.529691	3.7695	
9.512205	3.7761	
9.494783	3.7803	
9.477424	3.7751	
9.460138	3.7703	
9.442906	3.7771	
9.425737	3.7832	
9.40863	3.7808	
9.391585	3.7734	
9.374602	3.7642	
9.35768	3.7515	
9.340818	3.7217	
9.324018	3.6797	
9.307278	3.6457	
9.290598	3.6221	
9.273977	3.5976	
9.257416	3.56	
9.240914	3.5056	
9.224471	3.459	
9.208086	3.425	
9.191759	3.3889	
9.17549	3.3496	
9.159279	3.3208	
9.143125	3.283	
9.127027	3.2263	
9.110986	3.1733	
9.095002	3.116	
9.079073	3.0488	
9.063209	2.9783	
9.047391	2.9241	
9.031629	2.8823	
9.015921	2.834	
9.000268	2.7871	
8.984669	2.7576	
8.969125	2.727	
8.953634	2.6924	
8.938196	2.6758	
8.922811	2.6711	
8.90748	2.6833	
8.892201	2.7041	
8.876974	2.7261	
8.861799	2.7537	
8.846676	2.791	
8.831605	2.832	
8.816585	2.8723	
8.801616	2.9123	
8.786698	2.9709	
8.77183	3.0427	
8.757012	3.1191	
8.742245	3.2019	
8.727527	3.2839	
8.712858	3.3721	
8.698247	3.4394	
8.683676	3.4573	
8.669155	3.4385	
8.654682	3.3879	
8.640257	3.2988	
8.62588	3.1872	
8.611551	3.0691	
8.59727	2.9343	
8.583035	2.7959	
8.568848	2.6694	
8.554708	2.5449	
8.540614	2.4053	
8.526567	2.2803	
8.512565	2.1641	
8.49861	2.0488	
8.4847	1.9355	
8.470836	1.8381	
8.457017	1.7512	
8.443243	1.6658	
8.429514	1.5789	
8.41583	1.5061	
8.402189	1.4548	
8.388593	1.4121	
8.375041	1.3704	
8.36154	1.343	
8.348075	1.3235	
8.334653	1.3125	
8.321274	1.3042	
8.307939	1.2996	
8.294646	1.3096	
8.281395	1.3296	
8.268187	1.3499	
8.255021	1.3738	
8.241896	1.404	
8.228814	1.438	
8.215772	1.4731	
8.202773	1.512	
8.189814	1.5598	
8.176896	1.6045	
8.164018	1.6504	
8.151188	1.7021	
8.138392	1.7544	
8.125635	1.8047	
8.112919	1.8584	
8.100242	1.917	
8.087605	1.9751	
8.075007	2.0312	
8.062449	2.0845	
8.049929	2.1294	
8.037448	2.1724	
8.025006	2.2183	
8.012602	2.2607	
8.000237	2.3047	
7.98791	2.3525	
7.97562	2.3916	
7.963369	2.4319	
7.951154	2.4707	
7.938978	2.5117	
7.926838	2.5569	
7.914736	2.5957	
7.902671	2.6399	
7.890642	2.6894	
7.87865	2.7324	
7.866694	2.7761	
7.854781	2.8306	
7.842897	2.8745	
7.83105	2.9155	
7.819238	2.9629	
7.807462	3.0032	
7.795721	3.0361	
7.784015	3.0806	
7.772345	3.1228	
7.760709	3.156	
7.749109	3.1875	
7.737543	3.2217	
7.726011	3.2534	
7.714514	3.2734	
7.70305	3.2927	
7.691621	3.3179	
7.680226	3.3428	
7.668865	3.3684	
7.657537	3.3935	
7.646242	3.4163	
7.634981	3.4363	
7.623753	3.4678	
7.612557	3.5032	
7.601395	3.5303	
7.590265	3.552	
7.579174	3.5688	
7.568109	3.5801	
7.557077	3.593	
7.546076	3.604	
7.535108	3.605	
7.524171	3.6035	
7.513267	3.6013	
7.502393	3.5896	
7.491551	3.5781	
7.480741	3.5681	
7.469961	3.5776	
7.459213	3.5989	
7.448496	3.6282	
7.437809	3.6592	
7.427153	3.6853	
7.416527	3.7241	
7.405932	3.77	
7.395367	3.8071	
7.384832	3.8481	
7.374327	3.8948	
7.363852	3.9382	
7.353406	3.978	
7.34299	4.0161	
7.332604	4.0598	
7.322252	4.1094	
7.311925	4.1577	
7.301626	4.2085	
7.291356	4.249	
7.281115	4.2866	
7.270903	4.3296	
7.260719	4.3743	
7.250564	4.4148	
7.240438	4.459	
7.230339	4.4944	
7.220269	4.5283	
7.210226	4.5625	
7.200212	4.602	
7.190225	4.6482	
7.180266	4.6877	
7.170335	4.7251	
7.160436	4.7659	
7.150559	4.792	
7.14071	4.824	
7.130887	4.8606	
7.121092	4.8743	
7.111324	4.8779	
7.101582	4.8943	
7.091867	4.9084	
7.082178	4.9006	
7.072516	4.8967	
7.06288	4.9023	
7.053271	4.8916	
7.043687	4.8874	
7.03413	4.9209	
7.024598	4.9519	
7.015092	4.9802	
7.005612	5.0139	
6.996158	5.0432	
6.986729	5.0735	
6.977325	5.1086	
6.967947	5.1365	
6.958594	5.1518	
6.949265	5.1858	
6.939962	5.2124	
6.930689	5.227	
6.921435	5.2388	
6.912207	5.2524	
6.903002	5.2676	
6.893823	5.2847	
6.884667	5.3015	
6.875536	5.3081	
6.866429	5.2771	
6.857347	5.2798	
6.848288	5.3096	
6.839253	5.3144	
6.830242	5.3032	
6.821254	5.3047	
6.812291	5.3235	
6.803351	5.3205	
6.794434	5.3098	
6.78554	5.3154	
6.77667	5.3284	
6.767823	5.3452	
6.758999	5.3743	
6.750198	5.3938	
6.74142	5.4121	
6.732665	5.4416	
6.723932	5.4634	
6.715227	5.4778	
6.706539	5.5017	
6.697874	5.5364	
6.689232	5.5337	
6.680611	5.5327	
6.672013	5.5701	
6.663437	5.5925	
6.654883	5.5923	
6.646351	5.582	
6.637841	5.5791	
6.629352	5.6221	
6.620885	5.6794	
6.61244	5.7195	
6.604017	5.7541	
6.595614	5.7798	
6.587233	5.8166	
6.578874	5.8462	
6.570535	5.8747	
6.562218	5.9331	
6.553922	5.9736	
6.545646	6.0085	
6.537392	6.0432	
6.529158	6.0571	
6.520945	6.051	
6.512757	6.0781	
6.504585	6.0788	
6.496434	6.0398	
6.488303	6.0376	
6.480193	6.0603	
6.472102	6.0578	
6.464032	6.042	
6.455982	6.0161	
6.447952	5.9868	
6.439942	5.9419	
6.431952	5.8884	
6.423981	5.824	
6.416031	5.7283	
6.4081	5.6921	
6.400188	5.6968	
6.392297	5.6565	
6.384424	5.6152	
6.376571	5.5747	
6.368737	5.531	
6.360923	5.5085	
6.353127	5.4692	
6.345351	5.4094	
6.337593	5.3823	
6.329855	5.3694	
6.32214	5.3442	
6.314439	5.3169	
6.306757	5.2825	
6.299094	5.2568	
6.291449	5.2292	
6.283823	5.1946	
6.276215	5.1604	
6.268626	5.1184	
6.261055	5.0603	
6.253502	5.0078	
6.245967	4.9553	
6.238451	4.9001	
6.230953	4.8513	
6.223472	4.8252	
6.21601	4.8032	
6.208566	4.791	
6.201143	4.7991	
6.193734	4.8142	
6.186343	4.8245	
6.178969	4.8786	
6.171613	4.9553	
6.164274	5.0054	
6.156953	5.0517	
6.149649	5.1133	
6.142363	5.1682	
6.135094	5.2334	
6.127841	5.289	
6.120607	5.3171	
6.113389	5.3376	
6.106188	5.3972	
6.099004	5.4504	
6.091837	5.4763	
6.084687	5.4907	
6.077553	5.487	
6.070436	5.4841	
6.063336	5.4892	
6.056253	5.4509	
6.049186	5.3952	
6.042135	5.4221	
6.035101	5.4497	
6.028087	5.438	
6.021086	5.4084	
6.014101	5.3821	
6.007132	5.376	
6.000179	5.3464	
5.993242	5.2981	
5.986321	5.2703	
5.979416	5.2466	
5.972528	5.1958	
5.965655	5.1421	
5.958797	5.1067	
5.951956	5.051	
5.94513	4.9878	
5.93832	4.9072	
5.931525	4.8674	
5.924746	4.8613	
5.917983	4.8442	
5.911235	4.8364	
5.904502	4.8227	
5.897784	4.8042	
5.891082	4.8359	
5.884395	4.8574	
5.877723	4.8845	
5.871067	4.9477	
5.864428	4.9778	
5.857802	4.9851	
5.85119	4.9905	
5.844593	4.9861	
5.838012	4.9536	
5.831444	4.9131	
5.824892	4.8662	
5.818354	4.8269	
5.811831	4.7981	
5.805323	4.7641	
5.798829	4.7226	
5.79235	4.6814	
5.785885	4.6477	
5.779435	4.6194	
5.772999	4.5886	
5.766577	4.5666	
5.76017	4.5967	
5.753776	4.624	
5.747397	4.6362	
5.741032	4.6711	
5.734682	4.6975	
5.728345	4.7117	
5.722022	4.7339	
5.715713	4.7522	
5.709421	4.7593	
5.70314	4.7807	
5.696873	4.7927	
5.690619	4.7834	
5.684379	4.7717	
5.678153	4.7637	
5.671941	4.7644	
5.665742	4.7617	
5.659556	4.7497	
5.653384	4.7388	
5.647226	4.7331	
5.641081	4.739	
5.634949	4.7722	
5.62883	4.8022	
5.622725	4.8454	
5.616633	4.9062	
5.610558	4.9822	
5.604492	5.0666	
5.59844	5.157	
5.5924	5.2637	
5.586374	5.3733	
5.58036	5.4866	
5.57436	5.6167	
5.568372	5.7554	
5.562397	5.8821	
5.556435	6.0073	
5.550486	6.1306	
5.54455	6.2483	
5.538626	6.3574	
5.532715	6.4587	
5.526816	6.5329	
5.52093	6.5959	
5.515057	6.6543	
5.509196	6.6889	
5.503347	6.7055	
5.497511	6.7222	
5.491687	6.7231	
5.485876	6.7156	
5.480077	6.7187	
5.47429	6.7258	
5.468518	6.7151	
5.462755	6.7065	
5.457005	6.7097	
5.451267	6.7097	
5.445541	6.7131	
5.439826	6.7192	
5.434124	6.7258	
5.428434	6.7241	
5.422755	6.7197	
5.417089	6.7358	
5.411434	6.7524	
5.405791	6.7615	
5.40016	6.77	
5.394541	6.7737	
5.388933	6.7712	
5.383337	6.7771	
5.377752	6.7768	
5.372179	6.7729	
5.366618	6.7688	
5.361068	6.7571	
5.35553	6.7341	
5.350003	6.7146	
5.344487	6.7104	
5.338983	6.6972	
5.333493	6.676	
5.328011	6.6611	
5.322541	6.6477	
5.317081	6.6311	
5.311634	6.6152	
5.306197	6.6042	
5.300771	6.5976	
5.295356	6.5928	
5.289953	6.5891	
5.28456	6.5747	
5.279179	6.5564	
5.273808	6.55	
5.268449	6.5359	
5.2631	6.5159	
5.257762	6.5046	
5.252435	6.488	
5.247118	6.4621	
5.241813	6.4385	
5.236518	6.418	
5.231234	6.4011	
5.22596	6.3833	
5.220697	6.3723	
5.215445	6.3633	
5.210203	6.3718	
5.204974	6.3882	
5.199754	6.4109	
5.194543	6.4494	
5.189344	6.4997	
5.184154	6.5569	
5.178975	6.6106	
5.173806	6.664	
5.168648	6.72	
5.1635	6.7639	
5.158362	6.7978	
5.153234	6.8257	
5.148116	6.8467	
5.143009	6.8635	
5.137912	6.8813	
5.132825	6.8979	
5.127748	6.9104	
5.122681	6.9294	
5.117623	6.9599	
5.112576	6.9953	
5.107539	7.0354	
5.102512	7.0832	
5.097495	7.134	
5.092487	7.1846	
5.08749	7.2366	
5.082504	7.2849	
5.077526	7.3337	
5.072558	7.384	
5.067599	7.4292	
5.06265	7.4697	
5.057711	7.5058	
5.052781	7.5461	
5.047861	7.5823	
5.042951	7.6111	
5.03805	7.6452	
5.033158	7.677	
5.028277	7.7038	
5.023404	7.7358	
5.018541	7.7688	
5.013687	7.7966	
5.008843	7.8274	
5.004011	7.8667	
4.999185	7.8979	
4.994369	7.9262	
4.989562	7.959	
4.984764	7.9902	
4.979976	8.02	
4.975196	8.0544	
4.970426	8.0837	
4.965665	8.0993	
4.960913	8.1186	
4.95617	8.1496	
4.951436	8.1819	
4.946712	8.2026	
4.941996	8.2256	
4.937289	8.2544	
4.932591	8.2705	
4.927902	8.2851	
4.923222	8.3122	
4.918551	8.3393	
4.913889	8.362	
4.909236	8.3957	
4.904591	8.4272	
4.899955	8.4514	
4.895328	8.4841	
4.890712	8.5283	
4.886103	8.5661	
4.881502	8.5896	
4.876909	8.6133	
4.872326	8.6264	
4.867751	8.6382	
4.863184	8.6582	
4.858626	8.6701	
4.854077	8.675	
4.849536	8.6809	
4.845003	8.6914	
4.84048	8.6946	
4.835964	8.7016	
4.831457	8.7085	
4.826958	8.7153	
4.822468	8.7241	
4.817986	8.7319	
4.813512	8.7365	
4.809047	8.7458	
4.80459	8.7607	
4.800141	8.7771	
4.795701	8.7873	
4.791268	8.8052	
4.786844	8.833	
4.78243	8.8503	
4.778023	8.8769	
4.773623	8.917	
4.769231	8.9526	
4.764848	8.988	
4.760472	9.0229	
4.756105	9.0512	
4.751745	9.0783	
4.747394	9.1072	
4.74305	9.1416	
4.738714	9.1662	
4.734387	9.1936	
4.730067	9.2256	
4.725755	9.2615	
4.721451	9.3017	
4.717155	9.3486	
4.712866	9.3952	
4.708586	9.4477	
4.704313	9.509	
4.700048	9.582	
4.69579	9.6562	
4.691541	9.7297	
4.687299	9.8071	
4.683064	9.8904	
4.67884	9.9707	
4.674621	10.0559	
4.670409	10.1399	
4.666205	10.2121	
4.662009	10.2895	
4.65782	10.3767	
4.653639	10.4509	
4.649465	10.521	
4.645299	10.5986	
4.64114	10.6762	
4.636989	10.7549	
4.632845	10.8352	
4.628708	10.9253	
4.624579	11.0095	
4.620457	11.082	
4.616343	11.154	
4.612236	11.23	
4.608136	11.2981	
4.604043	11.3559	
4.599958	11.4109	
4.59588	11.4646	
4.591809	11.5158	
4.587745	11.5615	
4.583689	11.6067	
4.579642	11.6406	
4.575599	11.6728	
4.571564	11.7104	
4.567537	11.7487	
4.563516	11.7817	
4.559502	11.8156	
4.555495	11.853	
4.551496	11.8759	
4.547503	11.9045	
4.543517	11.9348	
4.539539	11.9665	
4.535567	11.9934	
4.531602	12.0107	
4.527644	12.0337	
4.523694	12.0627	
4.519749	12.0798	
4.515814	12.0947	
4.511884	12.1169	
4.507961	12.1301	
4.504044	12.1433	
4.500134	12.164	
4.496231	12.1904	
4.492335	12.2085	
4.488445	12.2112	
4.484562	12.2226	
4.480686	12.2424	
4.476817	12.25	
4.472954	12.2644	
4.469098	12.2859	
4.465249	12.2888	
4.461406	12.29	
4.45757	12.2983	
4.45374	12.31	
4.449917	12.3115	
4.4461	12.3235	
4.44229	12.3391	
4.438487	12.344	
4.43469	12.3493	
4.4309	12.3647	
4.427116	12.3745	
4.42334	12.3806	
4.419569	12.3913	
4.415805	12.405	
4.412046	12.406	
4.408294	12.4096	
4.404549	12.4228	
4.40081	12.4267	
4.397077	12.4331	
4.393351	12.4397	
4.389631	12.4426	
4.385917	12.4477	
4.382209	12.4536	
4.378508	12.4526	
4.374813	12.4455	
4.371124	12.4546	
4.367442	12.4626	
4.363765	12.4548	
4.360095	12.4572	
4.356431	12.4665	
4.352773	12.4692	
4.349121	12.4682	
4.345476	12.4773	
4.341836	12.4839	
4.338203	12.4809	
4.334577	12.4799	
4.330956	12.4843	
4.327341	12.4856	
4.323732	12.4853	
4.320128	12.4892	
4.316531	12.488	
4.31294	12.4856	
4.309355	12.4902	
4.305776	12.4914	
4.302202	12.4907	
4.298635	12.4924	
4.295073	12.4912	
4.291518	12.4834	
4.287968	12.4809	
4.284424	12.4821	
4.280886	12.4756	
4.277354	12.4663	
4.273828	12.4587	
4.270307	12.4345	
4.266792	12.4206	
4.263283	12.4406	
4.25978	12.4785	
4.256283	12.5009	
4.252791	12.5188	
4.249307	12.5385	
4.245827	12.5383	
4.242352	12.5376	
4.238883	12.5471	
4.23542	12.5537	
4.231962	12.5549	
4.22851	12.5605	
4.225064	12.5703	
4.221623	12.5732	
4.218188	12.5901	
4.214759	12.6159	
4.211335	12.6154	
4.207917	12.6103	
4.204504	12.6294	
4.201096	12.6401	
4.197695	12.6379	
4.1943	12.6501	
4.190909	12.6587	
4.187524	12.6579	
4.184144	12.6565	
4.18077	12.6645	
4.177401	12.6701	
4.174037	12.6631	
4.170679	12.6648	
4.167326	12.6667	
4.163979	12.6687	
4.160637	12.6762	
4.157301	12.6743	
4.153969	12.6782	
4.150643	12.6819	
4.147323	12.6833	
4.144008	12.684	
4.140698	12.6801	
4.137393	12.688	
4.134093	12.6931	
4.130799	12.6916	
4.12751	12.6999	
4.124227	12.7102	
4.120948	12.7104	
4.117675	12.7136	
4.114409	12.7304	
4.111146	12.7317	
4.107888	12.7329	
4.104635	12.7475	
4.101388	12.7556	
4.098146	12.7619	
4.094909	12.7732	
4.091676	12.7873	
4.08845	12.7966	
4.085228	12.8054	
4.082011	12.8149	
4.078799	12.8222	
4.075592	12.8283	
4.072391	12.8469	
4.069194	12.8537	
4.066003	12.8564	
4.062816	12.873	
4.059634	12.8818	
4.056458	12.8845	
4.053286	12.8989	
4.050119	12.9131	
4.046958	12.9062	
4.043801	12.917	
4.040649	12.9382	
4.037504	12.9436	
4.034361	12.946	
4.031224	12.9568	
4.028092	12.9646	
4.024964	12.9702	
4.021842	12.9758	
4.018724	12.9826	
4.015611	12.9843	
4.012503	12.9848	
4.0094	13.0009	
4.006301	13.0039	
4.003207	12.9951	
4.000118	13.0031	
3.997034	13.0141	
3.993955	13.0144	
3.99088	13.0156	
3.98781	13.0234	
3.984745	13.0188	
3.981684	13.0127	
3.978628	13.0168	
3.975577	13.0293	
3.972531	13.0376	
3.969489	13.0385	
3.966452	13.0444	
3.963421	13.0429	
3.960393	13.0429	
3.95737	13.0537	
3.954351	13.0654	
3.951337	13.0678	
3.948327	13.0776	
3.945323	13.083	
3.942322	13.084	
3.939326	13.092	
3.936335	13.101	
3.933349	13.1059	
3.930366	13.1059	
3.927389	13.1062	
3.924416	13.1071	
3.921447	13.1093	
3.918483	13.1125	
3.915523	13.115	
3.912568	13.1101	
3.909617	13.1137	
3.906671	13.1233	
3.903729	13.1228	
3.900792	13.1123	
3.897859	13.1113	
3.89493	13.1118	
3.892008	13.1089	
3.889088	13.1074	
3.886172	13.1018	
3.883261	13.0935	
3.880355	13.0898	
3.877452	13.0905	
3.874554	13.084	
3.871661	13.0759	
3.868771	13.0757	
3.865886	13.0673	
3.863005	13.0603	
3.860129	13.0612	
3.857257	13.0586	
3.854389	13.0468	
3.851525	13.0381	
3.848666	13.0368	
3.845812	13.0258	
3.842961	13.0263	
3.840115	13.0315	
3.837272	13.028	
3.834434	13.0227	
3.8316	13.0261	
3.82877	13.0283	
3.825944	13.0207	
3.823122	13.0202	
3.820305	13.0207	
3.817492	13.0193	
3.814683	13.0251	
3.811878	13.0234	
3.809077	13.0122	
3.80628	13.0095	
3.803487	13.0171	
3.800699	13.0153	
3.797914	13.0078	
3.795134	13.01	
3.792358	13.0168	
3.789586	13.0132	
3.786817	13.0124	
3.784053	13.0168	
3.781293	13.0151	
3.778538	13.008	
3.775786	13.0107	
3.773038	13.0149	
3.770294	13.0163	
3.767554	13.0124	
3.764818	13.0168	
3.762086	13.0166	
3.759358	13.0146	
3.756633	13.0141	
3.753913	13.0117	
3.751197	13.0046	
3.748484	12.9992	
3.745776	13.0039	
3.743071	13.008	
3.74037	13.0102	
3.737674	13.0068	
3.734981	12.9965	
3.732292	12.9983	
3.729607	13.0066	
3.726925	12.9956	
3.724248	12.9904	
3.721574	12.9944	
3.718904	12.989	
3.716238	12.979	
3.713578	12.9782	
3.710919	12.9824	
3.708265	12.9858	
3.705614	12.9831	
3.702967	12.976	
3.700324	12.976	
3.697685	12.9758	
3.695049	12.9765	
3.692417	12.9651	
3.689789	12.9602	
3.687165	12.9611	
3.684544	12.9624	
3.681927	12.9528	
3.679314	12.9494	
3.676704	12.9509	
3.674099	12.9514	
3.671497	12.9521	
3.668898	12.9433	
3.666303	12.9421	
3.663712	12.9406	
3.661125	12.9411	
3.658541	12.9375	
3.655961	12.9355	
3.653384	12.9362	
3.650813	12.9431	
3.648244	12.9367	
3.645678	12.9309	
3.643116	12.9384	
3.640558	12.937	
3.638003	12.9279	
3.635451	12.9292	
3.632904	12.9314	
3.63036	12.9189	
3.627819	12.9109	
3.625282	12.9204	
3.622749	12.9243	
3.620219	12.9148	
3.617692	12.9182	
3.61517	12.9138	
3.61265	12.9026	
3.610136	12.9038	
3.607623	12.9052	
3.605115	12.894	
3.602609	12.8879	
3.600107	12.886	
3.597609	12.8886	
3.595114	12.8874	
3.592622	12.8801	
3.590134	12.8723	
3.58765	12.8674	
3.585169	12.8657	
3.582691	12.8635	
3.580217	12.8479	
3.577746	12.834	
3.575278	12.8322	
3.572814	12.8315	
3.570354	12.8296	
3.567896	12.8269	
3.565442	12.8156	
3.562992	12.8073	
3.560545	12.8029	
3.558101	12.7968	
3.55566	12.7898	
3.553223	12.781	
3.550791	12.7744	
3.54836	12.7653	
3.545933	12.761	
3.54351	12.749	
3.541089	12.7392	
3.538672	12.7336	
3.536258	12.729	
3.533847	12.7226	
3.53144	12.7011	
3.529036	12.6809	
3.526635	12.6674	
3.524238	12.6555	
3.521844	12.6362	
3.519453	12.6108	
3.517065	12.5691	
3.51468	12.5217	
3.512299	12.4819	
3.509921	12.437	
3.507546	12.3847	
3.505175	12.3479	
3.502806	12.3278	
3.500441	12.3191	
3.498079	12.3254	
3.49572	12.3369	
3.493366	12.3559	
3.491013	12.3659	
3.488664	12.3833	
3.486318	12.3947	
3.483975	12.3882	
3.481635	12.3816	
3.479298	12.3808	
3.476964	12.374	
3.474634	12.3755	
3.472307	12.3779	
3.469982	12.375	
3.467661	12.3696	
3.465343	12.3664	
3.463028	12.3586	
3.460717	12.3362	
3.458408	12.3276	
3.456102	12.3152	
3.4538	12.2881	
3.4515	12.2632	
3.449204	12.2495	
3.44691	12.2417	
3.44462	12.2199	
3.442332	12.1831	
3.440048	12.1552	
3.437768	12.1357	
3.43549	12.1159	
3.433215	12.0854	
3.430943	12.0415	
3.428673	11.9941	
3.426407	11.9563	
3.424144	11.9109	
3.421884	11.8535	
3.419626	11.8169	
3.417372	11.8005	
3.415121	11.7932	
3.412873	11.7988	
3.410627	11.8161	
3.408385	11.8391	
3.406145	11.865	
3.403909	11.8891	
3.401675	11.9201	
3.399445	11.9433	
3.397217	11.9575	
3.394992	11.9792	
3.39277	11.999	
3.390551	12.0129	
3.388335	12.0034	
3.386122	11.9763	
3.383913	11.9558	
3.381705	11.9426	
3.379501	11.927	
3.377299	11.9162	
3.3751	11.9153	
3.372904	11.924	
3.370711	11.9331	
3.368521	11.9482	
3.366334	11.9675	
3.364149	11.9743	
3.361967	11.9748	
3.359788	11.9809	
3.357612	12.0005	
3.355439	12.0068	
3.353269	12.0085	
3.351101	12.008	
3.348937	12.0005	
3.346775	12.0046	
3.344616	12.0053	
3.342459	12.0024	
3.340306	11.9963	
3.338155	11.9973	
3.336007	12.0009	
3.333861	11.9939	
3.331719	11.9748	
3.329579	11.9658	
3.327442	11.9663	
3.325307	11.9577	
3.323175	11.9433	
3.321047	11.9294	
3.31892	11.917	
3.316797	11.9104	
3.314676	11.9057	
3.312558	11.893	
3.310443	11.8811	
3.30833	11.8811	
3.30622	11.8694	
3.304113	11.8501	
3.302008	11.8474	
3.299906	11.8357	
3.297808	11.8203	
3.295712	11.8059	
3.293618	11.7961	
3.291527	11.7839	
3.289438	11.7758	
3.287352	11.7641	
3.285269	11.7441	
3.283188	11.7304	
3.28111	11.7185	
3.279035	11.7097	
3.276962	11.697	
3.274892	11.6867	
3.272824	11.675	
3.270759	11.6584	
3.268697	11.6469	
3.266637	11.6389	
3.26458	11.6154	
3.262526	11.5942	
3.260474	11.5847	
3.258424	11.5661	
3.256378	11.551	
3.254333	11.5505	
3.252292	11.5376	
3.250253	11.5239	
3.248217	11.509	
3.246183	11.4936	
3.244152	11.479	
3.242123	11.4668	
3.240096	11.4492	
3.238072	11.4353	
3.236051	11.4226	
3.234032	11.3999	
3.232016	11.3904	
3.230002	11.3745	
3.227991	11.3464	
3.225982	11.3239	
3.223976	11.3105	
3.221972	11.2995	
3.219971	11.2883	
3.217972	11.2685	
3.215976	11.2578	
3.213982	11.2441	
3.211991	11.2202	
3.210002	11.2082	
3.208015	11.1982	
3.206031	11.1804	
3.20405	11.1692	
3.202071	11.155	
3.200095	11.1308	
3.198121	11.1091	
3.196149	11.0925	
3.19418	11.0759	
3.192213	11.0656	
3.190249	11.0481	
3.188286	11.0381	
3.186327	11.0227	
3.18437	10.9941	
3.182415	10.9812	
3.180462	10.9655	
3.178512	10.9446	
3.176565	10.9297	
3.174619	10.917	
3.172676	10.9011	
3.170736	10.8808	
3.168798	10.8633	
3.166862	10.8579	
3.164929	10.8501	
3.162997	10.8327	
3.161069	10.8149	
3.159142	10.8005	
3.157218	10.7815	
3.155297	10.7617	
3.153378	10.7441	
3.151461	10.7302	
3.149547	10.717	
3.147634	10.7072	
3.145724	10.6841	
3.143817	10.6675	
3.141911	10.6633	
3.140008	10.6428	
3.138107	10.6203	
3.136209	10.6118	
3.134313	10.5923	
3.132419	10.5747	
3.130527	10.5732	
3.128638	10.5598	
3.126751	10.5493	
3.124866	10.5349	
3.122985	10.5102	
3.121104	10.4926	
3.119227	10.4829	
3.117351	10.4843	
3.115477	10.4773	
3.113606	10.4533	
3.111737	10.4404	
3.10987	10.4282	
3.108006	10.4138	
3.106144	10.4079	
3.104284	10.4065	
3.102426	10.3969	
3.10057	10.3823	
3.098717	10.3725	
3.096866	10.3706	
3.095017	10.3608	
3.09317	10.3396	
3.091326	10.3325	
3.089483	10.3279	
3.087643	10.3247	
3.085805	10.3225	
3.08397	10.3215	
3.082136	10.3142	
3.080305	10.3088	
3.078477	10.299	
3.076649	10.2898	
3.074825	10.2842	
3.073002	10.2719	
3.071181	10.2656	
3.069363	10.2593	
3.067547	10.2536	
3.065733	10.2531	
3.063921	10.2446	
3.062111	10.2375	
3.060303	10.2319	
3.058498	10.2153	
3.056694	10.2033	
3.054893	10.2043	
3.053094	10.2072	
3.051297	10.1972	
3.049502	10.1863	
3.047709	10.1745	
3.045918	10.1594	
3.04413	10.1489	
3.042343	10.133	
3.040559	10.1245	
3.038777	10.1179	
3.036996	10.1113	
3.035219	10.1081	
3.033443	10.0908	
3.031669	10.0849	
3.029897	10.0869	
3.028127	10.0708	
3.02636	10.0559	
3.024594	10.042	
3.02283	10.0342	
3.021069	10.0144	
3.019309	10.0046	
3.017552	9.9936	
3.015796	9.988	
3.014043	9.9856	
3.012291	9.9656	
3.010542	9.9529	
3.008795	9.9465	
3.007049	9.9341	
3.005306	9.9221	
3.003565	9.9162	
3.001826	9.9226	
3.000089	9.9172	
2.998353	9.8886	
2.99662	9.8716	
2.994889	9.8769	
2.993161	9.8757	
2.991433	9.8613	
2.989708	9.8596	
2.987985	9.8401	
2.986264	9.8393	
2.984545	9.8491	
2.982827	9.8408	
2.981112	9.8403	
2.979399	9.8293	
2.977687	9.8066	
2.975978	9.8105	
2.97427	9.8022	
2.972565	9.7961	
2.970861	9.7861	
2.96916	9.7685	
2.96746	9.7788	
2.965764	9.78	
2.964068	9.7671	
2.962374	9.7719	
2.960682	9.771	
2.958992	9.7605	
2.957304	9.7607	
2.955618	9.7671	
2.953934	9.7593	
2.952252	9.7661	
2.950571	9.7717	
2.948893	9.7766	
2.947217	9.7788	
2.945542	9.789	
2.943869	9.7986	
2.942198	9.8012	
2.94053	9.7866	
2.938863	9.7842	
2.937197	9.7917	
2.935534	9.7988	
2.933873	9.8049	
2.932213	9.803	
2.930556	9.8037	
2.9289	9.7988	
2.927246	9.7995	
2.925595	9.8147	
2.923945	9.8232	
2.922297	9.8215	
2.92065	9.8222	
2.919006	9.8269	
2.917363	9.8447	
2.915722	9.8603	
2.914083	9.854	
2.912446	9.8603	
2.910811	9.8625	
2.909177	9.8608	
2.907546	9.8615	
2.905916	9.8762	
2.904288	9.8799	
2.902662	9.8708	
2.901037	9.8825	
2.899415	9.9018	
2.897794	9.9216	
2.896175	9.9336	
2.894558	9.9302	
2.892943	9.937	
2.891329	9.9426	
2.889717	9.9389	
2.888107	9.9448	
2.8865	9.9614	
2.884894	9.9624	
2.883289	9.9717	
2.881687	9.9802	
2.880086	9.9804	
2.878486	9.9873	
2.876889	9.9944	
2.875293	10.0063	
2.873699	10.0183	
2.872107	10.0237	
2.870517	10.0246	
2.868928	10.0398	
2.867342	10.0461	
2.865757	10.0486	
2.864173	10.0576	
2.862592	10.0659	
2.861012	10.0874	
2.859434	10.1137	
2.857857	10.1186	
2.856283	10.114	
2.85471	10.1245	
2.853139	10.1318	
2.851569	10.144	
2.850002	10.1587	
2.848436	10.1684	
2.846872	10.1711	
2.84531	10.1765	
2.843749	10.1948	
2.84219	10.2016	
2.840632	10.2126	
2.839077	10.2234	
2.837523	10.2351	
2.83597	10.2446	
2.83442	10.2505	
2.832871	10.2761	
2.831324	10.2883	
2.829778	10.2929	
2.828234	10.3039	
2.826692	10.3196	
2.825152	10.3347	
2.823613	10.3557	
2.822076	10.3703	
2.82054	10.3811	
2.819007	10.3947	
2.817474	10.4216	
2.815944	10.438	
2.814415	10.4626	
2.812888	10.4919	
2.811363	10.5117	
2.80984	10.5254	
2.808317	10.5586	
2.806797	10.5886	
2.805278	10.6001	
2.803761	10.6084	
2.802245	10.6445	
2.800731	10.6887	
2.799219	10.7063	
2.797708	10.729	
2.796199	10.7658	
2.794692	10.7888	
2.793186	10.8078	
2.791682	10.8391	
2.790179	10.8542	
2.788678	10.8576	
2.78718	10.8733	
2.785682	10.905	
2.784186	10.938	
2.782692	10.9489	
2.781199	10.979	
2.779707	11.0141	
2.778218	11.0468	
2.77673	11.094	
2.775243	11.1401	
2.773758	11.1665	
2.772275	11.1921	
2.770793	11.2185	
2.769313	11.2478	
2.767834	11.289	
2.766357	11.3237	
2.764882	11.3337	
2.763408	11.3447	
2.761936	11.3706	
2.760465	11.4253	
2.758996	11.5002	
2.757528	11.5583	
2.756062	11.5893	
2.754598	11.6284	
2.753135	11.7165	
2.751674	11.7802	
2.750215	11.8318	
2.748756	11.8877	
2.7473	11.9497	
2.745844	11.9922	
2.744391	12.0256	
2.742939	12.0778	
2.741488	12.1137	
2.740039	12.1318	
2.738592	12.2024	
2.737146	12.2995	
2.735701	12.3418	
2.734258	12.3816	
2.732817	12.4699	
2.731377	12.5261	
2.729939	12.5815	
2.728502	12.6411	
2.727066	12.6924	
2.725633	12.7219	
2.7242	12.7568	
2.72277	12.8386	
2.72134	12.8725	
2.719912	12.8994	
2.718486	13.0171	
2.717062	13.0937	
2.715639	13.1447	
2.714217	13.1911	
2.712797	13.2024	
2.711378	13.185	
2.70996	13.2265	
2.708544	13.2942	
2.70713	13.333	
2.705717	13.3737	
2.704306	13.4162	
2.702896	13.448	
2.701487	13.4643	
2.70008	13.5031	
2.698674	13.539	
2.69727	13.5625	
2.695868	13.5805	
2.694466	13.5883	
2.693067	13.6213	
2.691668	13.6914	
2.690271	13.7439	
2.688876	13.7744	
2.687482	13.7849	
2.68609	13.7932	
2.684699	13.8169	
2.68331	13.8327	
2.681921	13.8432	
2.680535	13.8613	
2.679149	13.8379	
2.677765	13.844	
2.676383	13.8503	
2.675002	13.8869	
2.673622	13.9187	
2.672244	13.9238	
2.670867	13.8686	
2.669492	13.8994	
2.668118	13.9765	
2.666746	13.9514	
2.665374	13.9524	
2.664005	13.9912	
2.662637	14.0642	
2.66127	14.0735	
2.659905	14.0769	
2.658541	14.0886	
2.657178	14.1118	
2.655817	14.1015	
2.654457	14.1018	
2.653098	14.0991	
2.651741	14.1018	
2.650386	14.1272	
2.649031	14.1281	
2.647678	14.1264	
2.646327	14.1245	
2.644976	14.133	
2.643628	14.1428	
2.64228	14.1396	
2.640934	14.1511	
2.639589	14.1543	
2.638246	14.1618	
2.636904	14.1679	
2.635564	14.1714	
2.634224	14.1421	
2.632886	14.1328	
2.63155	14.1215	
2.630215	14.0869	
2.628882	14.124	
2.627549	14.1347	
2.626218	14.1176	
2.624888	14.1474	
2.62356	14.1621	
2.622233	14.1494	
2.620907	14.0991	
2.619583	14.0957	
2.61826	14.1408	
2.616938	14.1049	
2.615617	14.1076	
2.614298	14.1411	
2.612981	14.1489	
2.611664	14.1728	
2.610349	14.1706	
2.609036	14.1506	
2.607723	14.1242	
2.606412	14.0966	
2.605102	14.0976	
2.603794	14.1196	
2.602487	14.1203	
2.601181	14.1455	
2.599876	14.1687	
2.598573	14.1743	
2.597272	14.1596	
2.595971	14.0918	
2.594672	14.0051	
2.593374	14.0717	
2.592077	14.1574	
2.590782	14.163	
2.589488	14.1687	
2.588195	14.1611	
2.586903	14.1435	
2.585613	14.146	
2.584324	14.1128	
2.583036	14.1169	
2.58175	14.1328	
2.580465	14.122	
2.579181	14.1289	
2.577898	14.1113	
2.576617	14.101	
2.575337	14.1172	
2.574058	14.113	
2.572781	14.092	
2.571505	14.1174	
2.57023	14.123	
2.568956	14.1086	
2.567683	14.124	
2.566413	14.1347	
2.565143	14.1225	
2.563874	14.0981	
2.562607	14.0854	
2.561341	14.0925	
2.560076	14.1101	
2.558812	14.1042	
2.55755	14.1049	
2.556289	14.1118	
2.555029	14.1096	
2.55377	14.113	
2.552513	14.0988	
2.551257	14.0969	
2.550002	14.1132	
2.548748	14.1255	
2.547496	14.1106	
2.546244	14.1142	
2.544994	14.1428	
2.543745	14.1269	
2.542498	14.1189	
2.541252	14.1425	
2.540006	14.1523	
2.538762	14.1381	
2.53752	14.125	
2.536279	14.1179	
2.535039	14.1042	
2.5338	14.1076	
2.532562	14.0893	
2.531325	14.0759	
2.53009	14.0866	
2.528856	14.0898	
2.527622	14.0752	
2.526391	14.0676	
2.52516	14.0837	
2.523931	14.0881	
2.522702	14.0593	
2.521475	14.0576	
2.52025	14.0615	
2.519025	14.0813	
2.517801	14.0949	
2.51658	14.0901	
2.515359	14.0752	
2.514139	14.0683	
2.51292	14.0644	
2.511703	14.0776	
2.510486	14.0786	
2.509271	14.0612	
2.508057	14.0649	
2.506844	14.0717	
2.505633	14.0991	
2.504422	14.0881	
2.503213	14.059	
2.502005	14.0581	
2.500798	14.0771	
2.499592	14.0688	
2.498387	14.0642	
2.497184	14.0759	
2.495981	14.0793	
2.49478	14.0642	
2.49358	14.0454	
2.492381	14.0459	
2.491184	14.0593	
2.489987	14.0434	
2.488792	14.0354	
2.487598	14.0525	
2.486405	14.0693	
2.485213	14.0776	
2.484022	14.0844	
2.482832	14.0798	
2.481644	14.0647	
2.480456	14.0571	
2.47927	14.0498	
2.478085	14.0371	
2.476901	14.0371	
2.475718	14.0351	
2.474536	14.0468	
2.473356	14.0522	
2.472176	14.0503	
2.470998	14.0212	
2.469821	14.0188	
2.468645	14.0341	
2.467469	14.0234	
2.466296	14.0183	
2.465123	14.0222	
2.463951	14.028	
2.462781	14.0085	
2.461611	14.0188	
2.460443	14.0119	
2.459276	14.0146	
2.45811	14.0188	
2.456945	14.041	
2.455781	14.0249	
2.454618	13.9875	
2.453457	13.9931	
2.452296	14.007	
2.451137	14.0249	
2.449978	14.0168	
2.448821	14.0127	
2.447665	13.9983	
2.44651	13.9897	
2.445355	13.9931	
2.444203	13.9763	
2.443051	13.9685	
2.4419	13.9834	
2.44075	13.9853	
2.439602	13.9912	
2.438454	13.9746	
2.437308	13.9636	
2.436162	13.9599	
2.435018	13.9499	
2.433875	13.9619	
2.432733	13.9738	
2.431592	13.9746	
2.430452	13.9682	
2.429313	13.9546	
2.428175	13.9575	
2.427038	13.9707	
2.425903	13.9646	
2.424768	13.9472	
2.423634	13.9365	
2.422502	13.9179	
2.42137	13.9275	
2.42024	13.9362	
2.41911	13.9394	
2.417982	13.9235	
2.416855	13.9401	
2.415729	13.9448	
2.414603	13.9616	
2.413479	13.9607	
2.412356	13.9409	
2.411234	13.9477	
2.410113	13.9582	
2.408993	13.9253	
2.407874	13.9211	
2.406756	13.9231	
2.405639	13.9038	
2.404524	13.9101	
2.403409	13.9209	
2.402296	13.8838	
2.401183	13.8676	
2.400071	13.8652	
2.398961	13.8745	
2.397851	13.8798	
2.396742	13.8764	
2.395635	13.8598	
2.394528	13.8632	
2.393423	13.8818	
2.392318	13.8769	
2.391215	13.8574	
2.390112	13.853	
2.389011	13.8596	
2.38791	13.8271	
2.386811	13.8066	
2.385713	13.8305	
2.384616	13.8491	
2.383519	13.8337	
2.382424	13.8278	
2.381329	13.8198	
2.380236	13.8166	
2.379144	13.8215	
2.378052	13.8398	
2.376962	13.8261	
2.375873	13.8017	
2.374784	13.7993	
2.373697	13.8305	
2.37261	13.8339	
2.371525	13.811	
2.370441	13.8115	
2.369357	13.8354	
2.368275	13.813	
2.367193	13.7783	
2.366113	13.778	
2.365033	13.7968	
2.363955	13.8122	
2.362877	13.7817	
2.361801	13.749	
2.360726	13.7443	
2.359651	13.7768	
2.358578	13.7627	
2.357505	13.7392	
2.356434	13.7431	
2.355363	13.7568	
2.354293	13.7712	
2.353225	13.7612	
2.352157	13.7597	
2.35109	13.7514	
2.350024	13.7212	
2.34896	13.7238	
2.347896	13.7446	
2.346833	13.7514	
2.345771	13.7417	
2.34471	13.7348	
2.34365	13.749	
2.342591	13.7138	
2.341533	13.7021	
2.340476	13.7087	
2.339419	13.7085	
2.338364	13.708	
2.33731	13.7241	
2.336256	13.7087	
2.335205	13.6689	
2.334153	13.675	
2.333103	13.6738	
2.332053	13.6772	
2.331005	13.6699	
2.329957	13.6643	
2.32891	13.6748	
2.327864	13.6567	
2.326819	13.645	
2.325776	13.6552	
2.324733	13.6806	
2.323691	13.6992	
2.322649	13.6757	
2.321609	13.6584	
2.32057	13.6435	
2.319532	13.6377	
2.318494	13.6548	
2.317458	13.6753	
2.316422	13.674	
2.315388	13.6569	
2.314354	13.6328	
2.313321	13.6357	
2.312289	13.6548	
2.311259	13.6494	
2.310229	13.6342	
2.3092	13.6347	
2.308172	13.6342	
2.307145	13.6328	
2.306118	13.646	
2.305093	13.6421	
2.304068	13.6152	
2.303045	13.624	
2.302022	13.6289	
2.301	13.602	
2.299979	13.5947	
2.298959	13.6191	
2.29794	13.624	
2.296922	13.6235	
2.295905	13.6147	
2.294889	13.5886	
2.293874	13.5947	
2.292859	13.582	
2.291845	13.5771	
2.290833	13.5859	
2.289821	13.5781	
2.28881	13.5881	
2.2878	13.5937	
2.286791	13.6006	
2.285782	13.6089	
2.284775	13.581	
2.283768	13.5503	
2.282763	13.5654	
2.281758	13.5759	
2.280754	13.5503	
2.279751	13.562	
2.278749	13.541	
2.277748	13.5239	
2.276747	13.54	
2.275748	13.5444	
2.274749	13.5361	
2.273751	13.5185	
2.272755	13.5114	
2.271759	13.5175	
2.270764	13.5083	
2.26977	13.5127	
2.268777	13.4956	
2.267784	13.5014	
2.266792	13.5014	
2.265802	13.5171	
2.264812	13.5127	
2.263823	13.5141	
2.262835	13.5058	
2.261847	13.4785	
2.260861	13.4687	
2.259875	13.4516	
2.258891	13.4394	
2.257907	13.4633	
2.256924	13.448	
2.255942	13.4297	
2.25496	13.4487	
2.25398	13.4624	
2.253	13.455	
2.252021	13.4292	
2.251044	13.4179	
2.250067	13.4326	
2.24909	13.4394	
2.248115	13.4282	
2.247141	13.4331	
2.246167	13.4428	
2.245195	13.4209	
2.244223	13.4072	
2.243251	13.3803	
2.242281	13.3994	
2.241312	13.4062	
2.240343	13.3674	
2.239375	13.3652	
2.238408	13.3784	
2.237442	13.3686	
2.236477	13.363	
2.235513	13.3965	
2.234549	13.386	
2.233586	13.3647	
2.232624	13.3818	
2.231663	13.3906	
2.230703	13.3745	
2.229743	13.3474	
2.228785	13.32	
2.227827	13.3359	
2.22687	13.3266	
2.225914	13.3115	
2.224958	13.3076	
2.224004	13.3166	
2.223051	13.3169	
2.222098	13.3056	
2.221146	13.3127	
2.220194	13.2983	
2.219244	13.2942	
2.218294	13.3159	
2.217346	13.309	
2.216398	13.301	
2.21545	13.2902	
2.214504	13.2922	
2.213558	13.2827	
2.212614	13.2912	
2.21167	13.2812	
2.210726	13.2314	
2.209784	13.2055	
2.208843	13.2197	
2.207902	13.2334	
2.206962	13.2285	
2.206023	13.2209	
2.205084	13.2234	
2.204147	13.2173	
2.20321	13.2341	
2.202274	13.2519	
2.201339	13.219	
2.200405	13.2126	
2.199471	13.1992	
2.198539	13.1965	
2.197607	13.2046	
2.196675	13.1782	
2.195745	13.1867	
2.194815	13.184	
2.193886	13.1848	
2.192958	13.1709	
2.192031	13.1652	
2.191105	13.1533	
2.190179	13.1411	
2.189254	13.1555	
2.18833	13.1508	
2.187406	13.1599	
2.186484	13.1606	
2.185563	13.1386	
2.184642	13.1401	
2.183721	13.1223	
2.182802	13.1106	
2.181883	13.1045	
2.180965	13.0881	
2.180048	13.0637	
2.179132	13.081	
2.178216	13.0805	
2.177301	13.0725	
2.176387	13.0717	
2.175474	13.08	
2.174561	13.092	
2.173649	13.0942	
2.172738	13.081	
2.171828	13.0603	
2.170919	13.0727	
2.17001		13.0842
2.169102	13.0962	
2.168195	13.059	
2.167288	13.0693	
2.166383	13.0852	
2.165478	13.0598	
2.164573	13.0569	
2.16367		13.059
2.162768	13.0578	
2.161866	13.03	
2.160965	12.9946	
2.160064	13.0024	
2.159165	12.9887	
2.158266	12.9824	
2.157367	12.9746	
2.15647		12.9287
2.155573	12.9074	
2.154677	12.9455	
2.153782	12.9756	
2.152888	12.9316	
2.151994	12.9067	
2.151101	12.9194	
2.150209	12.9172	
2.149317	12.8989	
2.148427	12.8952	
2.147537	12.8811	
2.146647	12.9004	
2.145759	12.9128	
2.144871	12.8911	
2.143984	12.9133	
2.143098	12.9055	
2.142212	12.8813	
2.141328	12.8686	
2.140443	12.8982	
2.13956		12.8796
2.138677	12.8586	
2.137795	12.8733	
2.136914	12.8794	
2.136034	12.8696	
2.135154	12.8554	
2.134275	12.8276	
2.133397	12.8125	
2.132519	12.8291	
2.131642	12.8601	
2.130766	12.8647	
2.129891	12.8457	
2.129016	12.8552	
2.128142	12.8515	
2.127269	12.8291	
2.126396	12.8257	
2.125524	12.7934	
2.124653	12.7798	
2.123783	12.7968	
2.122913	12.768	
2.122044	12.7798	
2.121176	12.799	
2.120308	12.7812	
2.119442	12.7424	
2.118575	12.7529	
2.11771		12.7566
2.116845	12.7424	
2.115981	12.709	
2.115118	12.7212	
2.114255	12.7356	
2.113393	12.7382	
2.112532	12.7424	
2.111672	12.7146	
2.110812	12.676	
2.109953	12.6528	
2.109094	12.634	
2.108236	12.6694	
2.10738		12.7019
2.106524	12.6692	
2.105668	12.6828	
2.104813	12.6911	
2.103959	12.6792	
2.103105	12.6709	
2.102252	12.6955	
2.1014		12.6965
2.100549	12.6653	
2.099698	12.6313	
2.098848	12.6438	
2.097998	12.6281	
2.09715	12.6255
2.096302	12.6416	
2.095454	12.6572	
2.094608	12.6772	
2.093762	12.6299	
2.092916	12.6379	
2.092072	12.6206	
2.091228	12.6086	
2.090384	12.6194	
2.089542	12.6572	
2.0887	12.6733
2.087859	12.632	
2.087019	12.5722	
2.086179	12.5901	
2.08534	12.6281
2.084501	12.6049	
2.083663	12.5742	
2.082826	12.559	
2.08199	12.5676
2.081154	12.5761	
2.080319	12.5227	
2.079484	12.5002	


