Name: 14259.61
Type: Soil
Class: Lunar
Subclass: Transitional
Particle Size: Fine
Sample No.: 14259.61
Owner: JHU
Wavelength range: IR
Origin: Apollo 14 landing site via the NASA Lunar Sample Repository at Johnson 
Space Center, Houston, TX.
Description: The Apollo 14 site represents major element chemistry transitional 
between the highlands and maria.  This sample is an additional sample to the 
suite of soils  from this site selected to represent different exposure ages of 
the same basic soil.  The exposure age of this soil is very great (Is/FeO=85).


Measurement:  Directional (10 degree) hemispherical reflectance
First Column:  X
Second Column:  Y
X Units:  Wavelength (micrometers)
Y Units:  Reflectance (percent)
First X Value:  14.011
Last X Value:  2.079
Number of X Values:  2124
Additional information:  None

14.011	1.0732
13.973	1.0854
13.936	1.0854
13.899	1.1554
13.861	1.0983
13.824	1.1336
13.788	1.0222
13.751	1.0224
13.715	1.0812
13.679	1.1477
13.643	1.1149
13.607	1.1230
13.571	1.1489
13.536	1.1709
13.500	1.1977
13.465	1.1711
13.430	1.1225
13.396	1.1464
13.361	1.1975
13.327	1.1672
13.293	1.1805
13.259	1.2294
13.225	1.2298
13.191	1.2655
13.158	1.2851
13.124	1.2673
13.091	1.2391
13.058	1.3143
13.026	1.3449
12.993	1.3345
12.960	1.3563
12.928	1.3627
12.896	1.3748
12.864	1.3992
12.832	1.3892
12.800	1.4001
12.769	1.4379
12.737	1.5220
12.706	1.5359
12.675	1.5633
12.644	1.5948
12.614	1.6185
12.583	1.6417
12.552	1.6863
12.522	1.7271
12.492	1.7556
12.462	1.7509
12.432	1.7917
12.402	1.8425
12.373	1.8777
12.343	1.9086
12.314	1.9460
12.285	1.9566
12.256	1.9730
12.227	1.9948
12.198	2.0008
12.169	1.9830
12.141	1.9898
12.113	2.0087
12.084	2.0106
12.056	1.9926
12.028	1.9969
12.000	1.9894
11.973	1.9817
11.945	1.9419
11.918	1.9399
11.890	1.9384
11.863	1.9299
11.836	1.9251
11.809	1.9305
11.782	1.9296
11.755	1.9442
11.729	1.9398
11.702	1.9184
11.676	1.9291
11.650	1.9534
11.624	1.9476
11.598	1.9598
11.572	1.9418
11.546	1.9527
11.520	1.9618
11.495	1.9617
11.469	1.9603
11.444	1.9698
11.419	1.9819
11.394	1.9750
11.369	1.9555
11.344	1.9506
11.319	1.9427
11.294	1.9140
11.270	1.9126
11.245	1.9215
11.221	1.9179
11.197	1.9115
11.173	1.8942
11.149	1.8973
11.125	1.8974
11.101	1.8579
11.077	1.8375
11.054	1.8619
11.030	1.8557
11.007	1.8358
10.983	1.8462
10.960	1.8757
10.937	1.8656
10.914	1.8839
10.891	1.8814
10.868	1.8794
10.846	1.8800
10.823	1.8789
10.800	1.8877
10.778	1.8999
10.755	1.8813
10.733	1.8611
10.711	1.8556
10.689	1.8616
10.667	1.8540
10.645	1.8591
10.623	1.8375
10.602	1.8146
10.580	1.8166
10.558	1.7909
10.537	1.7687
10.516	1.7724
10.494	1.7562
10.473	1.7437
10.452	1.7154
10.431	1.7051
10.410	1.6906
10.389	1.6896
10.368	1.6745
10.348	1.6550
10.327	1.6696
10.306	1.6771
10.286	1.6447
10.266	1.6343
10.245	1.6209
10.225	1.6067
10.205	1.5876
10.185	1.5844
10.165	1.5917
10.145	1.5925
10.125	1.5870
10.106	1.5867
10.086	1.5645
10.066	1.5247
10.047	1.5164
10.027	1.5327
10.008	1.5206
9.9887	1.5200
9.9695	1.5320
9.9504	1.5089
9.9313	1.4996
9.9123	1.5284
9.8934	1.5128
9.8746	1.4965
9.8558	1.5059
9.8371	1.5152
9.8185	1.4960
9.7999	1.4927
9.7814	1.4927
9.7630	1.4919
9.7447	1.5085
9.7264	1.4991
9.7082	1.4753
9.6900	1.4735
9.6719	1.4654
9.6539	1.4434
9.6360	1.4634
9.6181	1.5013
9.6003	1.4858
9.5825	1.4942
9.5649	1.4867
9.5472	1.4637
9.5297	1.4654
9.5122	1.4732
9.4948	1.4547
9.4774	1.4703
9.4601	1.4725
9.4429	1.4430
9.4257	1.4324
9.4086	1.4410
9.3916	1.4036
9.3746	1.3890
9.3577	1.4037
9.3408	1.4085
9.3240	1.3978
9.3073	1.3889
9.2906	1.3770
9.2740	1.3756
9.2574	1.3707
9.2409	1.3343
9.2245	1.3192
9.2081	1.3336
9.1918	1.3223
9.1755	1.3395
9.1593	1.3412
9.1431	1.2986
9.1270	1.2762
9.1110	1.2775
9.0950	1.2368
9.0791	1.2312
9.0632	1.2609
9.0474	1.2491
9.0316	1.2238
9.0159	1.1885
9.0003	1.1546
8.9847	1.1318
8.9691	1.1100
8.9536	1.1069
8.9382	1.0821
8.9228	1.0722
8.9075	1.0501
8.8922	1.0400
8.8770	1.0170
8.8618	0.98100
8.8467	0.93755
8.8316	0.95145
8.8166	0.94555
8.8016	0.90380
8.7867	0.89180
8.7718	0.90400
8.7570	0.88775
8.7422	0.86700
8.7275	0.86580
8.7129	0.87450
8.6982	0.86870
8.6837	0.83185
8.6692	0.80915
8.6547	0.82320
8.6403	0.82535
8.6259	0.80845
8.6116	0.78055
8.5973	0.75380
8.5830	0.71390
8.5688	0.72200
8.5547	0.72385
8.5406	0.72065
8.5266	0.69925
8.5126	0.68700
8.4986	0.66325
8.4847	0.65995
8.4708	0.66205
8.4570	0.65260
8.4432	0.63640
8.4295	0.61420
8.4158	0.59340
8.4022	0.59620
8.3886	0.58000
8.3750	0.57115
8.3615	0.57085
8.3481	0.56435
8.3347	0.55155
8.3213	0.55920
8.3079	0.55605
8.2946	0.56500
8.2814	0.55900
8.2682	0.53865
8.2550	0.53445
8.2419	0.53505
8.2288	0.54465
8.2158	0.56395
8.2028	0.58080
8.1898	0.59080
8.1769	0.57225
8.1640	0.58300
8.1512	0.61715
8.1384	0.65235
8.1256	0.66360
8.1129	0.67630
8.1002	0.72320
8.0876	0.77325
8.0750	0.81535
8.0624	0.86175
8.0499	0.89370
8.0374	0.93355
8.0250	0.98420
8.0126	1.0488
8.0002	1.0942
7.9879	1.1708
7.9756	1.2570
7.9634	1.3276
7.9512	1.3923
7.9390	1.4513
7.9268	1.5147
7.9147	1.6075
7.9027	1.7036
7.8906	1.7970
7.8786	1.8816
7.8667	1.9657
7.8548	2.0571
7.8429	2.1402
7.8310	2.2210
7.8192	2.3104
7.8075	2.4069
7.7957	2.5089
7.7840	2.6055
7.7723	2.6986
7.7607	2.7996
7.7491	2.8828
7.7375	2.9594
7.7260	3.0703
7.7145	3.1885
7.7031	3.2731
7.6916	3.3664
7.6802	3.4800
7.6689	3.5717
7.6575	3.6689
7.6462	3.7534
7.6350	3.8319
7.6238	3.9290
7.6126	4.0496
7.6014	4.1559
7.5903	4.2537
7.5792	4.3405
7.5681	4.4220
7.5571	4.5323
7.5461	4.6325
7.5351	4.7255
7.5242	4.8240
7.5133	4.9069
7.5024	4.9993
7.4916	5.0937
7.4807	5.2025
7.4700	5.2982
7.4592	5.3759
7.4485	5.4711
7.4378	5.5556
7.4272	5.6516
7.4165	5.7672
7.4059	5.8497
7.3954	5.9248
7.3848	6.0182
7.3743	6.1173
7.3639	6.1967
7.3534	6.2605
7.3430	6.3379
7.3326	6.4362
7.3223	6.5309
7.3119	6.6338
7.3016	6.7155
7.2914	6.7901
7.2811	6.8549
7.2709	6.9388
7.2607	7.0136
7.2506	7.0912
7.2404	7.1790
7.2303	7.2564
7.2203	7.3303
7.2102	7.4029
7.2002	7.4625
7.1902	7.5310
7.1803	7.6022
7.1703	7.6742
7.1604	7.7606
7.1506	7.8399
7.1407	7.8786
7.1309	7.9293
7.1211	7.9980
7.1113	8.0751
7.1016	8.1444
7.0919	8.2032
7.0822	8.2558
7.0725	8.3111
7.0629	8.3743
7.0533	8.4672
7.0437	8.5570
7.0341	8.5827
7.0246	8.6159
7.0151	8.6664
7.0056	8.7361
6.9962	8.8195
6.9867	8.8623
6.9773	8.9212
6.9679	8.9949
6.9586	9.0578
6.9493	9.0849
6.9400	9.1432
6.9307	9.1953
6.9214	9.2493
6.9122	9.2934
6.9030	9.3506
6.8938	9.4115
6.8847	9.4513
6.8755	9.5151
6.8664	9.6069
6.8573	9.6230
6.8483	9.6434
6.8393	9.6862
6.8302	9.7220
6.8213	9.7541
6.8123	9.8075
6.8034	9.8557
6.7944	9.8933
6.7855	9.9280
6.7767	9.9508
6.7678	9.9721
6.7590	10.010
6.7502	10.046
6.7414	10.058
6.7327	10.087
6.7239	10.146
6.7152	10.178
6.7065	10.196
6.6979	10.216
6.6892	10.242
6.6806	10.268
6.6720	10.272
6.6634	10.275
6.6549	10.318
6.6464	10.384
6.6378	10.437
6.6294	10.407
6.6209	10.391
6.6124	10.420
6.6040	10.437
6.5956	10.473
6.5872	10.513
6.5789	10.551
6.5705	10.578
6.5622	10.581
6.5539	10.615
6.5456	10.617
6.5374	10.642
6.5292	10.678
6.5209	10.717
6.5128	10.733
6.5046	10.786
6.4964	10.868
6.4883	10.891
6.4802	10.870
6.4721	10.869
6.4640	10.884
6.4560	10.906
6.4480	10.935
6.4399	10.957
6.4320	10.970
6.4240	11.008
6.4160	11.074
6.4081	11.063
6.4002	10.998
6.3923	10.983
6.3844	10.999
6.3766	11.021
6.3687	11.030
6.3609	11.015
6.3531	11.018
6.3454	11.047
6.3376	11.035
6.3299	11.011
6.3221	11.002
6.3144	11.022
6.3068	11.027
6.2991	11.026
6.2914	11.038
6.2838	11.046
6.2762	11.046
6.2686	11.063
6.2611	11.079
6.2535	11.082
6.2460	11.078
6.2385	11.097
6.2310	11.126
6.2235	11.145
6.2160	11.132
6.2086	11.138
6.2011	11.176
6.1937	11.213
6.1863	11.265
6.1790	11.269
6.1716	11.260
6.1643	11.294
6.1570	11.337
6.1496	11.366
6.1424	11.390
6.1351	11.404
6.1278	11.430
6.1206	11.485
6.1134	11.553
6.1062	11.559
6.0990	11.567
6.0918	11.589
6.0847	11.622
6.0776	11.667
6.0704	11.714
6.0633	11.715
6.0563	11.781
6.0492	11.865
6.0421	11.822
6.0351	11.796
6.0281	11.795
6.0211	11.852
6.0141	11.917
6.0071	11.950
6.0002	11.972
5.9932	12.032
5.9863	12.094
5.9794	12.133
5.9725	12.189
5.9657	12.241
5.9588	12.291
5.9520	12.374
5.9451	12.464
5.9383	12.569
5.9315	12.586
5.9247	12.592
5.9180	12.653
5.9112	12.726
5.9045	12.799
5.8978	12.912
5.8911	12.972
5.8844	13.023
5.8777	13.055
5.8711	13.058
5.8644	13.115
5.8578	13.149
5.8512	13.181
5.8446	13.226
5.8380	13.293
5.8314	13.381
5.8249	13.478
5.8184	13.496
5.8118	13.478
5.8053	13.506
5.7988	13.547
5.7923	13.608
5.7859	13.656
5.7794	13.699
5.7730	13.788
5.7666	13.866
5.7602	13.851
5.7538	13.857
5.7474	13.900
5.7410	13.919
5.7347	13.945
5.7283	13.980
5.7220	14.003
5.7157	14.035
5.7094	14.053
5.7031	14.052
5.6969	14.074
5.6906	14.098
5.6844	14.104
5.6782	14.128
5.6719	14.145
5.6657	14.129
5.6596	14.169
5.6534	14.212
5.6472	14.260
5.6411	14.317
5.6349	14.307
5.6288	14.297
5.6227	14.330
5.6166	14.382
5.6106	14.416
5.6045	14.439
5.5984	14.481
5.5924	14.513
5.5864	14.561
5.5804	14.616
5.5744	14.640
5.5684	14.649
5.5624	14.672
5.5564	14.713
5.5505	14.740
5.5445	14.750
5.5386	14.769
5.5327	14.777
5.5268	14.794
5.5209	14.821
5.5151	14.835
5.5092	14.841
5.5033	14.845
5.4975	14.847
5.4917	14.867
5.4859	14.897
5.4801	14.926
5.4743	14.922
5.4685	14.927
5.4628	14.943
5.4570	14.936
5.4513	14.950
5.4455	14.983
5.4398	15.005
5.4341	15.018
5.4284	15.049
5.4228	15.098
5.4171	15.095
5.4114	15.100
5.4058	15.132
5.4002	15.154
5.3945	15.171
5.3889	15.199
5.3833	15.221
5.3778	15.244
5.3722	15.283
5.3666	15.298
5.3611	15.325
5.3555	15.347
5.3500	15.363
5.3445	15.380
5.3390	15.425
5.3335	15.448
5.3280	15.442
5.3225	15.450
5.3171	15.475
5.3116	15.510
5.3062	15.533
5.3008	15.557
5.2954	15.585
5.2900	15.619
5.2846	15.646
5.2792	15.673
5.2738	15.706
5.2684	15.725
5.2631	15.755
5.2578	15.793
5.2524	15.825
5.2471	15.870
5.2418	15.898
5.2365	15.923
5.2312	15.960
5.2260	16.009
5.2207	16.056
5.2154	16.097
5.2102	16.140
5.2050	16.176
5.1998	16.204
5.1945	16.245
5.1893	16.297
5.1842	16.345
5.1790	16.384
5.1738	16.423
5.1686	16.453
5.1635	16.511
5.1584	16.578
5.1532	16.635
5.1481	16.697
5.1430	16.762
5.1379	16.826
5.1328	16.889
5.1277	16.933
5.1227	16.982
5.1176	17.036
5.1126	17.089
5.1075	17.146
5.1025	17.212
5.0975	17.286
5.0925	17.348
5.0875	17.382
5.0825	17.429
5.0775	17.488
5.0726	17.545
5.0676	17.597
5.0627	17.663
5.0577	17.725
5.0528	17.779
5.0479	17.823
5.0430	17.876
5.0380	17.923
5.0332	17.960
5.0283	18.021
5.0234	18.081
5.0185	18.137
5.0137	18.198
5.0088	18.243
5.0040	18.292
4.9992	18.363
4.9944	18.425
4.9896	18.466
4.9848	18.507
4.9800	18.559
4.9752	18.623
4.9704	18.677
4.9657	18.726
4.9609	18.801
4.9562	18.872
4.9514	18.923
4.9467	18.970
4.9420	19.024
4.9373	19.081
4.9326	19.129
4.9279	19.180
4.9232	19.242
4.9186	19.296
4.9139	19.343
4.9092	19.386
4.9046	19.435
4.9000	19.490
4.8953	19.542
4.8907	19.584
4.8861	19.623
4.8815	19.673
4.8769	19.722
4.8723	19.765
4.8678	19.801
4.8632	19.863
4.8586	19.910
4.8541	19.958
4.8495	20.019
4.8450	20.068
4.8405	20.106
4.8360	20.149
4.8315	20.179
4.8270	20.217
4.8225	20.280
4.8180	20.326
4.8135	20.369
4.8090	20.424
4.8046	20.478
4.8001	20.513
4.7957	20.562
4.7913	20.597
4.7868	20.624
4.7824	20.671
4.7780	20.726
4.7736	20.777
4.7692	20.813
4.7648	20.854
4.7605	20.891
4.7561	20.937
4.7517	20.980
4.7474	20.996
4.7431	21.025
4.7387	21.081
4.7344	21.124
4.7301	21.167
4.7258	21.195
4.7215	21.229
4.7172	21.276
4.7129	21.317
4.7086	21.364
4.7043	21.413
4.7000	21.438
4.6958	21.469
4.6915	21.534
4.6873	21.570
4.6831	21.583
4.6788	21.633
4.6746	21.680
4.6704	21.709
4.6662	21.750
4.6620	21.789
4.6578	21.821
4.6536	21.860
4.6495	21.921
4.6453	21.961
4.6411	21.987
4.6370	22.031
4.6328	22.072
4.6287	22.101
4.6246	22.127
4.6205	22.165
4.6163	22.213
4.6122	22.244
4.6081	22.269
4.6040	22.306
4.6000	22.343
4.5959	22.366
4.5918	22.382
4.5877	22.401
4.5837	22.432
4.5796	22.472
4.5756	22.487
4.5716	22.520
4.5675	22.558
4.5635	22.568
4.5595	22.579
4.5555	22.612
4.5515	22.645
4.5475	22.659
4.5435	22.667
4.5395	22.695
4.5356	22.728
4.5316	22.748
4.5276	22.764
4.5237	22.769
4.5197	22.791
4.5158	22.807
4.5119	22.816
4.5080	22.844
4.5040	22.870
4.5001	22.869
4.4962	22.869
4.4923	22.897
4.4884	22.913
4.4846	22.918
4.4807	22.947
4.4768	22.952
4.4730	22.957
4.4691	22.974
4.4652	22.978
4.4614	22.979
4.4576	22.991
4.4537	23.014
4.4499	23.033
4.4461	23.040
4.4423	23.052
4.4385	23.061
4.4347	23.063
4.4309	23.083
4.4271	23.098
4.4233	23.095
4.4196	23.106
4.4158	23.108
4.4120	23.093
4.4083	23.096
4.4045	23.117
4.4008	23.142
4.3971	23.149
4.3934	23.148
4.3896	23.166
4.3859	23.195
4.3822	23.197
4.3785	23.203
4.3748	23.200
4.3711	23.207
4.3674	23.220
4.3638	23.236
4.3601	23.253
4.3564	23.247
4.3528	23.241
4.3491	23.266
4.3455	23.279
4.3418	23.274
4.3382	23.284
4.3346	23.307
4.3310	23.315
4.3273	23.322
4.3237	23.324
4.3201	23.330
4.3165	23.351
4.3129	23.360
4.3094	23.368
4.3058	23.389
4.3022	23.406
4.2986	23.412
4.2951	23.434
4.2915	23.446
4.2880	23.448
4.2844	23.452
4.2809	23.456
4.2774	23.461
4.2738	23.474
4.2703	23.467
4.2668	23.449
4.2633	23.435
4.2598	23.435
4.2563	23.442
4.2528	23.434
4.2493	23.452
4.2458	23.490
4.2424	23.513
4.2389	23.535
4.2354	23.543
4.2320	23.533
4.2285	23.522
4.2251	23.511
4.2216	23.502
4.2182	23.479
4.2148	23.468
4.2113	23.476
4.2079	23.459
4.2045	23.447
4.2011	23.444
4.1977	23.446
4.1943	23.445
4.1909	23.445
4.1875	23.446
4.1841	23.451
4.1808	23.437
4.1774	23.424
4.1740	23.437
4.1707	23.438
4.1673	23.428
4.1640	23.420
4.1606	23.429
4.1573	23.444
4.1540	23.432
4.1506	23.427
4.1473	23.442
4.1440	23.448
4.1407	23.434
4.1374	23.439
4.1341	23.433
4.1308	23.420
4.1275	23.423
4.1242	23.419
4.1209	23.404
4.1177	23.413
4.1144	23.433
4.1111	23.423
4.1079	23.423
4.1046	23.417
4.1014	23.408
4.0981	23.413
4.0949	23.418
4.0917	23.419
4.0884	23.423
4.0852	23.417
4.0820	23.419
4.0788	23.425
4.0756	23.417
4.0724	23.412
4.0692	23.421
4.0660	23.414
4.0628	23.414
4.0596	23.410
4.0565	23.406
4.0533	23.408
4.0501	23.423
4.0470	23.418
4.0438	23.401
4.0406	23.395
4.0375	23.389
4.0344	23.377
4.0312	23.378
4.0281	23.392
4.0250	23.405
4.0218	23.401
4.0187	23.398
4.0156	23.378
4.0125	23.368
4.0094	23.384
4.0063	23.386
4.0032	23.383
4.0001	23.391
3.9970	23.403
3.9940	23.390
3.9909	23.373
3.9878	23.380
3.9847	23.387
3.9817	23.394
3.9786	23.382
3.9756	23.368
3.9725	23.380
3.9695	23.372
3.9665	23.353
3.9634	23.358
3.9604	23.361
3.9574	23.361
3.9544	23.363
3.9513	23.364
3.9483	23.347
3.9453	23.333
3.9423	23.327
3.9393	23.319
3.9363	23.326
3.9333	23.330
3.9304	23.328
3.9274	23.326
3.9244	23.308
3.9214	23.291
3.9185	23.284
3.9155	23.290
3.9126	23.284
3.9096	23.259
3.9067	23.248
3.9037	23.258
3.9008	23.270
3.8979	23.278
3.8949	23.268
3.8920	23.257
3.8891	23.248
3.8862	23.248
3.8833	23.235
3.8804	23.235
3.8775	23.238
3.8746	23.229
3.8717	23.212
3.8688	23.206
3.8659	23.196
3.8630	23.201
3.8601	23.197
3.8573	23.189
3.8544	23.180
3.8515	23.164
3.8487	23.155
3.8458	23.154
3.8430	23.142
3.8401	23.146
3.8373	23.151
3.8344	23.147
3.8316	23.128
3.8288	23.118
3.8259	23.108
3.8231	23.104
3.8203	23.096
3.8175	23.092
3.8147	23.113
3.8119	23.105
3.8091	23.078
3.8063	23.078
3.8035	23.081
3.8007	23.055
3.7979	23.040
3.7951	23.040
3.7924	23.035
3.7896	23.043
3.7868	23.026
3.7841	23.013
3.7813	22.998
3.7785	22.987
3.7758	22.977
3.7730	22.967
3.7703	22.973
3.7676	22.983
3.7648	22.975
3.7621	22.964
3.7594	22.943
3.7566	22.929
3.7539	22.914
3.7512	22.913
3.7485	22.913
3.7458	22.903
3.7431	22.890
3.7404	22.872
3.7377	22.860
3.7350	22.870
3.7323	22.878
3.7296	22.858
3.7269	22.827
3.7242	22.847
3.7216	22.863
3.7189	22.836
3.7162	22.809
3.7136	22.801
3.7109	22.805
3.7083	22.793
3.7056	22.769
3.7030	22.763
3.7003	22.760
3.6977	22.749
3.6950	22.743
3.6924	22.731
3.6898	22.723
3.6872	22.720
3.6845	22.696
3.6819	22.687
3.6793	22.681
3.6767	22.670
3.6741	22.683
3.6715	22.686
3.6689	22.648
3.6663	22.623
3.6637	22.636
3.6611	22.636
3.6585	22.616
3.6560	22.603
3.6534	22.589
3.6508	22.576
3.6482	22.564
3.6457	22.562
3.6431	22.562
3.6406	22.570
3.6380	22.557
3.6355	22.544
3.6329	22.549
3.6304	22.542
3.6278	22.528
3.6253	22.498
3.6227	22.483
3.6202	22.493
3.6177	22.491
3.6152	22.480
3.6127	22.473
3.6101	22.456
3.6076	22.442
3.6051	22.427
3.6026	22.408
3.6001	22.401
3.5976	22.373
3.5951	22.363
3.5926	22.375
3.5901	22.399
3.5876	22.383
3.5852	22.364
3.5827	22.365
3.5802	22.347
3.5777	22.318
3.5753	22.323
3.5728	22.331
3.5704	22.316
3.5679	22.294
3.5654	22.274
3.5630	22.270
3.5605	22.264
3.5581	22.264
3.5557	22.262
3.5532	22.256
3.5508	22.242
3.5484	22.220
3.5459	22.210
3.5435	22.191
3.5411	22.192
3.5387	22.204
3.5363	22.183
3.5338	22.164
3.5314	22.156
3.5290	22.155
3.5266	22.161
3.5242	22.154
3.5218	22.150
3.5195	22.134
3.5171	22.131
3.5147	22.140
3.5123	22.122
3.5099	22.096
3.5075	22.091
3.5052	22.100
3.5028	22.107
3.5004	22.097
3.4981	22.077
3.4957	22.036
3.4934	22.036
3.4910	22.043
3.4887	22.009
3.4863	21.996
3.4840	22.021
3.4816	21.998
3.4793	21.974
3.4770	21.972
3.4746	21.948
3.4723	21.938
3.4700	21.950
3.4677	21.939
3.4653	21.909
3.4630	21.891
3.4607	21.885
3.4584	21.876
3.4561	21.876
3.4538	21.876
3.4515	21.884
3.4492	21.870
3.4469	21.841
3.4446	21.841
3.4423	21.848
3.4400	21.835
3.4378	21.865
3.4355	21.855
3.4332	21.813
3.4309	21.795
3.4287	21.787
3.4264	21.787
3.4241	21.784
3.4219	21.776
3.4196	21.733
3.4174	21.725
3.4151	21.731
3.4129	21.710
3.4106	21.696
3.4084	21.700
3.4061	21.678
3.4039	21.666
3.4017	21.644
3.3994	21.630
3.3972	21.629
3.3950	21.635
3.3928	21.615
3.3906	21.597
3.3883	21.603
3.3861	21.596
3.3839	21.566
3.3817	21.537
3.3795	21.526
3.3773	21.534
3.3751	21.532
3.3729	21.517
3.3707	21.506
3.3685	21.493
3.3663	21.469
3.3641	21.453
3.3620	21.445
3.3598	21.417
3.3576	21.410
3.3554	21.409
3.3533	21.391
3.3511	21.376
3.3489	21.369
3.3468	21.343
3.3446	21.338
3.3425	21.344
3.3403	21.333
3.3382	21.294
3.3360	21.267
3.3339	21.265
3.3317	21.262
3.3296	21.244
3.3274	21.239
3.3253	21.238
3.3232	21.207
3.3210	21.188
3.3189	21.213
3.3168	21.225
3.3147	21.200
3.3126	21.149
3.3104	21.146
3.3083	21.145
3.3062	21.136
3.3041	21.143
3.3020	21.140
3.2999	21.112
3.2978	21.082
3.2957	21.075
3.2936	21.075
3.2915	21.059
3.2894	21.057
3.2874	21.067
3.2853	21.030
3.2832	21.001
3.2811	21.020
3.2790	21.036
3.2770	21.017
3.2749	20.976
3.2728	20.970
3.2708	20.951
3.2687	20.937
3.2666	20.945
3.2646	20.911
3.2625	20.895
3.2605	20.898
3.2584	20.888
3.2564	20.891
3.2543	20.876
3.2523	20.847
3.2503	20.845
3.2482	20.847
3.2462	20.836
3.2442	20.830
3.2421	20.810
3.2401	20.788
3.2381	20.769
3.2361	20.767
3.2340	20.764
3.2320	20.732
3.2300	20.717
3.2280	20.724
3.2260	20.702
3.2240	20.646
3.2220	20.643
3.2200	20.659
3.2180	20.648
3.2160	20.640
3.2140	20.652
3.2120	20.652
3.2100	20.629
3.2080	20.593
3.2060	20.578
3.2040	20.558
3.2021	20.565
3.2001	20.581
3.1981	20.568
3.1961	20.522
3.1942	20.481
3.1922	20.447
3.1902	20.461
3.1883	20.486
3.1863	20.497
3.1844	20.477
3.1824	20.454
3.1805	20.425
3.1785	20.405
3.1766	20.414
3.1746	20.404
3.1727	20.367
3.1707	20.369
3.1688	20.390
3.1669	20.385
3.1649	20.369
3.1630	20.328
3.1611	20.336
3.1591	20.339
3.1572	20.321
3.1553	20.285
3.1534	20.244
3.1515	20.241
3.1495	20.253
3.1476	20.243
3.1457	20.260
3.1438	20.255
3.1419	20.207
3.1400	20.198
3.1381	20.201
3.1362	20.195
3.1343	20.190
3.1324	20.157
3.1305	20.130
3.1286	20.143
3.1268	20.156
3.1249	20.139
3.1230	20.129
3.1211	20.114
3.1192	20.087
3.1174	20.079
3.1155	20.059
3.1136	20.035
3.1117	20.051
3.1099	20.070
3.1080	20.056
3.1061	20.041
3.1043	20.031
3.1024	20.041
3.1006	20.005
3.0987	19.976
3.0969	19.958
3.0950	19.947
3.0932	19.954
3.0913	19.956
3.0895	19.947
3.0876	19.935
3.0858	19.908
3.0840	19.901
3.0821	19.896
3.0803	19.886
3.0785	19.858
3.0766	19.844
3.0748	19.836
3.0730	19.841
3.0712	19.841
3.0694	19.833
3.0675	19.855
3.0657	19.850
3.0639	19.821
3.0621	19.815
3.0603	19.802
3.0585	19.794
3.0567	19.777
3.0549	19.766
3.0531	19.772
3.0513	19.782
3.0495	19.781
3.0477	19.737
3.0459	19.693
3.0441	19.719
3.0423	19.750
3.0406	19.719
3.0388	19.713
3.0370	19.714
3.0352	19.693
3.0334	19.673
3.0317	19.671
3.0299	19.653
3.0281	19.637
3.0264	19.634
3.0246	19.650
3.0228	19.646
3.0211	19.600
3.0193	19.611
3.0176	19.590
3.0158	19.581
3.0140	19.567
3.0123	19.571
3.0105	19.574
3.0088	19.559
3.0070	19.533
3.0053	19.515
3.0036	19.515
3.0018	19.480
3.0001	19.497
2.9984	19.500
2.9966	19.459
2.9949	19.437
2.9932	19.438
2.9914	19.446
2.9897	19.419
2.9880	19.376
2.9863	19.392
2.9845	19.375
2.9828	19.387
2.9811	19.427
2.9794	19.417
2.9777	19.380
2.9760	19.338
2.9743	19.314
2.9726	19.363
2.9709	19.366
2.9692	19.315
2.9675	19.302
2.9658	19.334
2.9641	19.347
2.9624	19.316
2.9607	19.296
2.9590	19.303
2.9573	19.286
2.9556	19.263
2.9539	19.272
2.9523	19.261
2.9506	19.227
2.9489	19.217
2.9472	19.208
2.9455	19.215
2.9439	19.233
2.9422	19.240
2.9405	19.249
2.9389	19.210
2.9372	19.190
2.9355	19.216
2.9339	19.204
2.9322	19.161
2.9306	19.159
2.9289	19.165
2.9272	19.163
2.9256	19.155
2.9239	19.172
2.9223	19.163
2.9207	19.167
2.9190	19.169
2.9174	19.137
2.9157	19.153
2.9141	19.140
2.9124	19.133
2.9108	19.110
2.9092	19.117
2.9075	19.116
2.9059	19.103
2.9043	19.085
2.9027	19.063
2.9010	19.063
2.8994	19.067
2.8978	19.064
2.8962	19.034
2.8946	19.006
2.8929	19.016
2.8913	19.043
2.8897	19.045
2.8881	19.027
2.8865	19.010
2.8849	19.024
2.8833	19.038
2.8817	19.010
2.8801	18.975
2.8785	18.969
2.8769	18.986
2.8753	19.009
2.8737	19.023
2.8721	19.020
2.8705	18.995
2.8689	18.957
2.8673	18.979
2.8658	19.012
2.8642	18.996
2.8626	18.966
2.8610	18.951
2.8594	18.933
2.8579	18.937
2.8563	18.952
2.8547	18.961
2.8531	18.965
2.8516	18.963
2.8500	18.938
2.8484	18.931
2.8469	18.935
2.8453	18.949
2.8437	18.932
2.8422	18.912
2.8406	18.921
2.8391	18.929
2.8375	18.925
2.8360	18.900
2.8344	18.913
2.8329	18.933
2.8313	18.935
2.8298	18.918
2.8282	18.911
2.8267	18.893
2.8252	18.892
2.8236	18.919
2.8221	18.920
2.8205	18.908
2.8190	18.931
2.8175	18.954
2.8159	18.929
2.8144	18.896
2.8129	18.913
2.8114	18.967
2.8098	18.982
2.8083	18.973
2.8068	18.976
2.8053	18.986
2.8038	18.999
2.8022	19.003
2.8007	19.020
2.7992	19.053
2.7977	19.047
2.7962	19.044
2.7947	19.090
2.7932	19.102
2.7917	19.091
2.7902	19.080
2.7887	19.113
2.7872	19.177
2.7857	19.158
2.7842	19.146
2.7827	19.163
2.7812	19.190
2.7797	19.223
2.7782	19.246
2.7767	19.256
2.7752	19.262
2.7738	19.294
2.7723	19.331
2.7708	19.347
2.7693	19.379
2.7678	19.409
2.7664	19.387
2.7649	19.457
2.7634	19.528
2.7619	19.545
2.7605	19.551
2.7590	19.570
2.7575	19.601
2.7561	19.659
2.7546	19.703
2.7531	19.703
2.7517	19.716
2.7502	19.689
2.7488	19.711
2.7473	19.757
2.7458	19.796
2.7444	19.839
2.7429	19.878
2.7415	19.922
2.7400	19.969
2.7386	19.960
2.7371	19.938
2.7357	19.965
2.7343	19.956
2.7328	19.956
2.7314	19.990
2.7299	20.021
2.7285	20.031
2.7271	20.093
2.7256	20.146
2.7242	20.145
2.7228	20.152
2.7213	20.230
2.7199	20.256
2.7185	20.184
2.7171	20.171
2.7156	20.191
2.7142	20.207
2.7128	20.228
2.7114	20.265
2.7100	20.274
2.7085	20.265
2.7071	20.245
2.7057	20.245
2.7043	20.250
2.7029	20.257
2.7015	20.248
2.7001	20.253
2.6987	20.263
2.6973	20.288
2.6959	20.299
2.6945	20.301
2.6931	20.275
2.6917	20.241
2.6903	20.267
2.6889	20.273
2.6875	20.254
2.6861	20.266
2.6847	20.274
2.6833	20.254
2.6819	20.223
2.6805	20.230
2.6791	20.274
2.6778	20.284
2.6764	20.289
2.6750	20.263
2.6736	20.252
2.6722	20.257
2.6709	20.334
2.6695	20.351
2.6681	20.324
2.6667	20.367
2.6654	20.370
2.6640	20.325
2.6626	20.244
2.6613	20.244
2.6599	20.258
2.6585	20.233
2.6572	20.208
2.6558	20.221
2.6545	20.199
2.6531	20.190
2.6517	20.187
2.6504	20.177
2.6490	20.158
2.6477	20.150
2.6463	20.172
2.6450	20.185
2.6436	20.137
2.6423	20.138
2.6409	20.121
2.6396	20.110
2.6382	20.124
2.6369	20.134
2.6356	20.121
2.6342	20.110
2.6329	20.111
2.6315	20.156
2.6302	20.176
2.6289	20.123
2.6275	20.108
2.6262	20.081
2.6249	20.041
2.6236	20.048
2.6222	20.073
2.6209	20.131
2.6196	20.105
2.6183	20.050
2.6169	20.083
2.6156	20.066
2.6143	20.013
2.6130	20.014
2.6117	20.003
2.6103	20.009
2.6090	20.011
2.6077	19.992
2.6064	20.015
2.6051	20.031
2.6038	20.005
2.6025	20.001
2.6012	19.951
2.5999	19.900
2.5986	19.926
2.5973	19.973
2.5960	20.049
2.5947	20.104
2.5934	19.999
2.5921	19.889
2.5908	19.870
2.5895	19.886
2.5882	19.896
2.5869	19.881
2.5856	19.855
2.5843	19.905
2.5830	19.897
2.5817	19.855
2.5805	19.828
2.5792	19.809
2.5779	19.841
2.5766	19.836
2.5753	19.785
2.5741	19.793
2.5728	19.806
2.5715	19.782
2.5702	19.786
2.5690	19.771
2.5677	19.741
2.5664	19.735
2.5651	19.735
2.5639	19.745
2.5626	19.755
2.5613	19.752
2.5601	19.711
2.5588	19.669
2.5575	19.675
2.5563	19.653
2.5550	19.622
2.5538	19.660
2.5525	19.681
2.5513	19.651
2.5500	19.615
2.5487	19.562
2.5475	19.585
2.5462	19.609
2.5450	19.606
2.5437	19.607
2.5425	19.603
2.5413	19.571
2.5400	19.548
2.5388	19.553
2.5375	19.585
2.5363	19.573
2.5350	19.538
2.5338	19.562
2.5326	19.561
2.5313	19.528
2.5301	19.519
2.5289	19.506
2.5276	19.502
2.5264	19.505
2.5252	19.487
2.5239	19.480
2.5227	19.465
2.5215	19.449
2.5202	19.455
2.5190	19.441
2.5178	19.404
2.5166	19.415
2.5154	19.429
2.5141	19.418
2.5129	19.397
2.5117	19.390
2.5105	19.382
2.5093	19.404
2.5081	19.401
2.5068	19.350
2.5056	19.323
2.5044	19.339
2.5032	19.344
2.5020	19.342
2.5008	19.340
2.4996	19.317
2.4984	19.284
2.4972	19.300
2.4960	19.316
2.4948	19.298
2.4936	19.268
2.4924	19.243
2.4912	19.246
2.4900	19.267
2.4888	19.226
2.4876	19.223
2.4864	19.240
2.4852	19.201
2.4840	19.218
2.4828	19.232
2.4816	19.192
2.4805	19.177
2.4793	19.185
2.4781	19.198
2.4769	19.183
2.4757	19.152
2.4745	19.126
2.4734	19.122
2.4722	19.118
2.4710	19.129
2.4698	19.142
2.4686	19.134
2.4675	19.128
2.4663	19.127
2.4651	19.101
2.4640	19.093
2.4628	19.106
2.4616	19.075
2.4604	19.039
2.4593	19.029
2.4581	19.030
2.4569	19.011
2.4558	19.027
2.4546	19.058
2.4535	19.030
2.4523	18.998
2.4511	19.012
2.4500	19.020
2.4488	18.991
2.4477	18.979
2.4465	18.986
2.4454	18.969
2.4442	18.920
2.4431	18.935
2.4419	18.966
2.4408	18.949
2.4396	18.947
2.4385	18.964
2.4373	18.922
2.4362	18.897
2.4350	18.880
2.4339	18.893
2.4327	18.895
2.4316	18.887
2.4305	18.861
2.4293	18.848
2.4282	18.836
2.4270	18.827
2.4259	18.846
2.4248	18.856
2.4236	18.824
2.4225	18.836
2.4214	18.859
2.4202	18.825
2.4191	18.802
2.4180	18.796
2.4169	18.793
2.4157	18.810
2.4146	18.781
2.4135	18.741
2.4124	18.751
2.4112	18.750
2.4101	18.714
2.4090	18.718
2.4079	18.718
2.4068	18.674
2.4056	18.681
2.4045	18.700
2.4034	18.698
2.4023	18.675
2.4012	18.663
2.4001	18.663
2.3990	18.650
2.3979	18.624
2.3967	18.658
2.3956	18.670
2.3945	18.650
2.3934	18.637
2.3923	18.608
2.3912	18.607
2.3901	18.620
2.3890	18.592
2.3879	18.571
2.3868	18.593
2.3857	18.578
2.3846	18.591
2.3835	18.609
2.3824	18.580
2.3813	18.538
2.3802	18.539
2.3791	18.542
2.3781	18.517
2.3770	18.509
2.3759	18.511
2.3748	18.475
2.3737	18.472
2.3726	18.472
2.3715	18.472
2.3704	18.506
2.3694	18.492
2.3683	18.449
2.3672	18.407
2.3661	18.400
2.3650	18.417
2.3640	18.417
2.3629	18.409
2.3618	18.417
2.3607	18.401
2.3597	18.374
2.3586	18.362
2.3575	18.365
2.3564	18.354
2.3554	18.356
2.3543	18.350
2.3532	18.318
2.3522	18.314
2.3511	18.327
2.3500	18.358
2.3490	18.340
2.3479	18.307
2.3468	18.292
2.3458	18.296
2.3447	18.312
2.3436	18.286
2.3426	18.248
2.3415	18.248
2.3405	18.251
2.3394	18.228
2.3384	18.194
2.3373	18.211
2.3363	18.187
2.3352	18.162
2.3342	18.208
2.3331	18.227
2.3321	18.210
2.3310	18.199
2.3300	18.159
2.3289	18.144
2.3279	18.146
2.3268	18.170
2.3258	18.155
2.3247	18.115
2.3237	18.098
2.3226	18.106
2.3216	18.122
2.3206	18.119
2.3195	18.094
2.3185	18.113
2.3175	18.147
2.3164	18.109
2.3154	18.078
2.3144	18.085
2.3133	18.070
2.3123	18.080
2.3113	18.041
2.3102	18.029
2.3092	18.043
2.3082	18.043
2.3071	18.024
2.3061	17.986
2.3051	17.970
2.3041	17.998
2.3030	17.959
2.3020	17.925
2.3010	17.937
2.3000	17.973
2.2990	18.013
2.2979	17.989
2.2969	17.935
2.2959	17.949
2.2949	17.948
2.2939	17.942
2.2929	17.925
2.2918	17.905
2.2908	17.899
2.2898	17.903
2.2888	17.881
2.2878	17.879
2.2868	17.896
2.2858	17.897
2.2848	17.875
2.2838	17.863
2.2828	17.883
2.2818	17.839
2.2808	17.768
2.2798	17.802
2.2787	17.786
2.2777	17.766
2.2767	17.791
2.2757	17.813
2.2747	17.814
2.2738	17.828
2.2728	17.793
2.2718	17.722
2.2708	17.715
2.2698	17.763
2.2688	17.758
2.2678	17.758
2.2668	17.731
2.2658	17.732
2.2648	17.763
2.2638	17.747
2.2628	17.680
2.2618	17.659
2.2609	17.657
2.2599	17.658
2.2589	17.663
2.2579	17.692
2.2569	17.678
2.2559	17.637
2.2550	17.626
2.2540	17.610
2.2530	17.595
2.2520	17.596
2.2510	17.594
2.2501	17.576
2.2491	17.552
2.2481	17.544
2.2471	17.566
2.2462	17.594
2.2452	17.625
2.2442	17.618
2.2433	17.557
2.2423	17.511
2.2413	17.521
2.2403	17.525
2.2394	17.513
2.2384	17.523
2.2374	17.518
2.2365	17.535
2.2355	17.498
2.2345	17.454
2.2336	17.466
2.2326	17.472
2.2317	17.450
2.2307	17.436
2.2297	17.432
2.2288	17.431
2.2278	17.435
2.2269	17.402
2.2259	17.390
2.2250	17.393
2.2240	17.366
2.2231	17.394
2.2221	17.398
2.2211	17.380
2.2202	17.386
2.2192	17.396
2.2183	17.384
2.2173	17.358
2.2164	17.349
2.2155	17.358
2.2145	17.319
2.2136	17.287
2.2126	17.295
2.2117	17.295
2.2107	17.267
2.2098	17.308
2.2088	17.339
2.2079	17.298
2.2070	17.307
2.2060	17.283
2.2051	17.216
2.2041	17.237
2.2032	17.270
2.2023	17.275
2.2013	17.253
2.2004	17.233
2.1995	17.213
2.1985	17.244
2.1976	17.237
2.1967	17.219
2.1957	17.231
2.1948	17.214
2.1939	17.147
2.1930	17.149
2.1920	17.184
2.1911	17.176
2.1902	17.126
2.1893	17.137
2.1883	17.164
2.1874	17.181
2.1865	17.203
2.1856	17.172
2.1846	17.154
2.1837	17.122
2.1828	17.105
2.1819	17.103
2.1810	17.094
2.1800	17.121
2.1791	17.100
2.1782	17.076
2.1773	17.083
2.1764	17.094
2.1755	17.096
2.1746	17.055
2.1736	17.054
2.1727	17.063
2.1718	17.021
2.1709	17.000
2.1700	17.015
2.1691	17.032
2.1682	17.010
2.1673	16.973
2.1664	16.989
2.1655	17.022
2.1646	16.998
2.1637	16.998
2.1628	17.011
2.1619	16.984
2.1610	16.937
2.1601	16.950
2.1592	16.939
2.1583	16.926
2.1574	16.928
2.1565	16.925
2.1556	16.924
2.1547	16.910
2.1538	16.904
2.1529	16.875
2.1520	16.862
2.1511	16.857
2.1502	16.844
2.1493	16.836
2.1484	16.851
2.1475	16.850
2.1466	16.810
2.1458	16.774
2.1449	16.782
2.1440	16.795
2.1431	16.800
2.1422	16.839
2.1413	16.829
2.1404	16.854
2.1396	16.801
2.1387	16.761
2.1378	16.787
2.1369	16.773
2.1360	16.767
2.1352	16.779
2.1343	16.744
2.1334	16.736
2.1325	16.727
2.1316	16.711
2.1308	16.776
2.1299	16.785
2.1290	16.761
2.1281	16.710
2.1273	16.704
2.1264	16.732
2.1255	16.746
2.1247	16.708
2.1238	16.666
2.1229	16.692
2.1220	16.694
2.1212	16.639
2.1203	16.686
2.1194	16.746
2.1186	16.707
2.1177	16.690
2.1168	16.651
2.1160	16.585
2.1151	16.577
2.1143	16.622
2.1134	16.615
2.1125	16.607
2.1117	16.663
2.1108	16.620
2.1100	16.598
2.1091	16.622
2.1082	16.566
2.1074	16.566
2.1065	16.544
2.1057	16.583
2.1048	16.573
2.1040	16.557
2.1031	16.539
2.1023	16.496
2.1014	16.555
2.1005	16.565
2.0997	16.523
2.0988	16.520
2.0980	16.499
2.0971	16.483
2.0963	16.467
2.0955	16.442
2.0946	16.463
2.0938	16.498
2.0929	16.485
2.0921	16.447
2.0912	16.463
2.0904	16.493
2.0895	16.457
2.0887	16.403
2.0879	16.482
2.0870	16.536
2.0862	16.493
2.0853	16.452
2.0845	16.503
2.0837	16.477
2.0828	16.424
2.0820	16.407
2.0812	16.394
2.0803	16.359
2.0795	16.354

