Name: Red Quartzite 
Type:  Rocks
Class:  Metamorphic 
Subclass: Quartzite
Particle Size:  500 - 1500 Micrometer
File Name:   qtzite1.doc
Owner:  JHU
Wavelength Range:  All
Origin:  Sample No. 377, The Hunt and Salisbury Collection at the U.S. 
Geological Survey, Denver, Co.
Description:  A well-compacted sample with medium-grained subangular to 
subrounded quartz grains and small amounts of interstitial calcite cement.  There 
is also a trace amount of secondary quartz cement   Fluid inclusions are common 
in the quartz with some grains showing strain while trace amounts of feldspar are 
present.  The calcite cement itself is stained with ferruginous material and some 
clay.  Modal analyses gave 69% quartz, 25% calcite, 5% clay, 1% feldspar.    
Measurement:  Directional (10 Degree) Hemispherical Reflectance
First Column:  X
Second Column:  Y  
X Units:  Wavelength (micrometers)
Y Units:  Reflectance (percent)
First X Value: 14.0112	
Last X Value:  0.4
Number of X Values:  2844
Additional Information:  None

14.0112	0.4062
13.9734	0.6934
13.9359	0.9367
13.8985	1.1289
13.8614	1.2755
13.8244	1.3793
13.7876	1.4461
13.7511	1.4672
13.7147	1.4333
13.6785	1.3688
13.6425	1.3293
13.6067	1.3554
13.5711	1.4645
13.5356	1.6393
13.5004	1.8454
13.4653	2.0292
13.4304	2.1542
13.3957	2.2074
13.3612	2.1962
13.3269	2.1371
13.2927	2.06
13.2587	1.9937
13.2249	1.9655
13.1912	1.9894
13.1577	2.0762
13.1244	2.2213
13.0913	2.4115
13.0583	2.6331
13.0255	2.8799
12.9929	3.1496
12.9604	3.4468
12.9281	3.7655
12.8959	4.0825
12.8639	4.3497
12.8321	4.5143
12.8004	4.5315
12.7688	4.3866
12.7375	4.1081
12.7063	3.7741
12.6752	3.4768
12.6443	3.2939
12.6135	3.2602
12.5829	3.3628
12.5524	3.5362
12.5221	3.6863
12.4919	3.7207
12.4619	3.5839
12.432	3.2632
12.4023	2.7941
12.3727	2.25
12.3432	1.7255
12.3139	1.304
12.2847	1.0329
12.2557	0.9154
12.2268	0.9226
12.198	1.0039
12.1694	1.1126
12.1409	1.2154
12.1125	1.3073
12.0843	1.3965
12.0562	1.4911
12.0282	1.5901
12.0003	1.6889
11.9726	1.7767
11.945	1.8451
11.9176	1.8887
11.8903	1.9131
11.8631	1.927
11.836	1.9392
11.809	1.9583
11.7822	1.9919
11.7555	2.042
11.7289	2.1069
11.7024	2.1789
11.676	2.2495
11.6498	2.3112
11.6237	2.365
11.5977	2.4172
11.5718	2.4794
11.546	2.5624
11.5203	2.6739
11.4948	2.8115
11.4694	2.9663
11.444	3.1261
11.4188	3.2824
11.3937	3.4221
11.3688	3.5304
11.3439	3.5932
11.3191	3.5968
11.2944	3.5338
11.2699	3.4111
11.2455	3.2499
11.2211	3.0826
11.1969	2.9372
11.1727	2.8295
11.1487	2.7596
11.1248	2.7136
11.101	2.6737
11.0773	2.6306
11.0536	2.5847
11.0301	2.5459
11.0067	2.5222
10.9834	2.5158
10.9602	2.522
10.937	2.5302
10.914	2.529
10.8911	2.5174
10.8682	2.4995
10.8455	2.484
10.8229	2.4756
10.8003	2.4768
10.7779	2.4885
10.7555	2.5055
10.7332	2.5215
10.7111	2.5363
10.689	2.5505
10.667	2.5667
10.6451	2.5871
10.6233	2.6155
10.6015	2.655
10.5799	2.7024
10.5584	2.7517
10.5369	2.7993
10.5155	2.8421
10.4942	2.8809
10.473	2.9182
10.4519	2.9608
10.4309	3.0144
10.4099	3.0783
10.3891	3.1488
10.3683	3.2245
10.3476	3.301
10.327	3.3771
10.3065	3.4527
10.286	3.5298
10.2656	3.6073
10.2454	3.682
10.2251	3.7506
10.205	3.8118
10.185	3.8644
10.165	3.9099
10.1451	3.9497
10.1253	3.9862
10.1056	4.0196
10.0859	4.0506
10.0663	4.0793
10.0468	4.1054
10.0274	4.1291
10.008	4.1502
9.9887	4.1669
9.9695	4.1793
9.9504	4.1909
9.9313	4.2095
9.9123	4.241
9.8934	4.2913
9.8746	4.3617
9.8558	4.4475
9.8371	4.5375
9.8185	4.622
9.7999	4.698
9.7814	4.7701
9.763	4.8466
9.7447	4.9402
9.7264	5.06
9.7082	5.2063
9.69	5.3696
9.6719	5.5391
9.6539	5.7059
9.636	5.8661
9.6181	6.0231
9.6003	6.1872
9.5825	6.3685
9.5649	6.5727
9.5472	6.8016
9.5297	7.0562
9.5122	7.3371
9.4948	7.6498
9.4774	8.0075
9.4601	8.4293
9.4429	8.9332
9.4257	9.5328
9.4086	10.2299
9.3916	11.0109
9.3746	11.8415
9.3577	12.6751
9.3408	13.4582
9.324	14.1403
9.3073	14.6844
9.2906	15.077
9.274	15.3278
9.2574	15.4632
9.2409	15.5199
9.2245	15.535
9.2081	15.5353
9.1918	15.5343
9.1755	15.5359
9.1593	15.5412
9.1431	15.5462
9.127	15.5484
9.111	15.5448
9.095	15.5283
9.0791	15.4814
9.0632	15.3797
9.0474	15.1993
9.0316	14.9278
9.0159	14.5729
9.0003	14.1779
8.9847	13.8113
8.9691	13.552
8.9536	13.4599
8.9382	13.5602
8.9228	13.8322
8.9075	14.2181
8.8922	14.6396
8.877	15.0275
8.8618	15.3345
8.8467	15.5407
8.8316	15.6479
8.8166	15.6726
8.8016	15.6383
8.7867	15.5725
8.7718	15.4955
8.757	15.4184
8.7422	15.3268
8.7275	15.1782
8.7129	14.9103
8.6982	14.4693
8.6837	13.847
8.6692	13.1094
8.6547	12.3947
8.6403	11.8777
8.6259	11.7018
8.6116	11.9258
8.5973	12.5
8.583	13.2893
8.5688	14.1243
8.5547	14.8632
8.5406	15.4321
8.5266	15.8273
8.5126	16.0862
8.4986	16.2607
8.4847	16.3925
8.4708	16.5075
8.457	16.6157
8.4432	16.7216
8.4295	16.832
8.4158	16.954
8.4022	17.093
8.3886	17.2519
8.375	17.4292
8.3615	17.6194
8.3481	17.8151
8.3347	18.0103
8.3213	18.2054
8.3079	18.4036
8.2946	18.6089
8.2814	18.8231
8.2682	19.0413
8.255	19.2521
8.2419	19.437
8.2288	19.5725
8.2158	19.6318
8.2028	19.5876
8.1898	19.4138
8.1769	19.0913
8.164	18.6127
8.1512	17.9871
8.1384	17.2387
8.1256	16.4026
8.1129	15.5192
8.1002	14.6298
8.0876	13.7685
8.075	12.9593
8.0624	12.2153
8.0499	11.5384
8.0374	10.9226
8.025	10.3556
8.0126	9.8222
8.0002	9.3097
7.9879	8.8071
7.9756	8.3079
7.9634	7.8101
7.9512	7.318
7.939	6.8394
7.9268	6.3856
7.9147	5.9661
7.9027	5.5893
7.8906	5.2567
7.8786	4.9656
7.8667	4.7078
7.8548	4.4779
7.8429	4.2701
7.831	4.082
7.8192	3.9145
7.8075	3.7698
7.7957	3.6478
7.784	3.5462
7.7723	3.4587
7.7607	3.3795
7.7491	3.302
7.7375	3.2214
7.726	3.1352
7.7145	3.0436
7.7031	2.9476
7.6916	2.8477
7.6802	2.7443
7.6689	2.6407
7.6575	2.5388
7.6462	2.443
7.635	2.3572
7.6238	2.2835
7.6126	2.2218
7.6014	2.1703
7.5903	2.1272
7.5792	2.0906
7.5681	2.0566
7.5571	2.0236
7.5461	1.9894
7.5351	1.9535
7.5242	1.9162
7.5133	1.8808
7.5024	1.8516
7.4916	1.8301
7.4807	1.8157
7.47	1.8061
7.4592	1.7975
7.4485	1.7884
7.4378	1.7779
7.4272	1.7674
7.4165	1.7585
7.4059	1.7512
7.3954	1.7439
7.3848	1.7349
7.3743	1.722
7.3639	1.7057
7.3534	1.6884
7.343	1.675
7.3326	1.6693
7.3223	1.6743
7.3119	1.6896
7.3016	1.7119
7.2914	1.7336
7.2811	1.7502
7.2709	1.7593
7.2607	1.7648
7.2506	1.7719
7.2404	1.7877
7.2303	1.8153
7.2203	1.8545
7.2102	1.9002
7.2002	1.9469
7.1902	1.992
7.1803	2.0359
7.1703	2.0787
7.1604	2.1248
7.1506	2.178
7.1407	2.2414
7.1309	2.316
7.1211	2.4009
7.1113	2.4923
7.1016	2.584
7.0919	2.6673
7.0822	2.7357
7.0725	2.7859
7.0629	2.8187
7.0533	2.8386
7.0437	2.8515
7.0341	2.8622
7.0246	2.8761
7.0151	2.894
7.0056	2.9134
6.9962	2.9307
6.9867	2.9422
6.9773	2.9453
6.9679	2.9393
6.9586	2.9269
6.9493	2.9141
6.94	2.907
6.9307	2.9091
6.9214	2.9218
6.9122	2.944
6.903	2.9702
6.8938	2.9928
6.8847	3.0084
6.8755	3.0168
6.8664	3.019
6.8573	3.0175
6.8483	3.017
6.8393	3.0202
6.8302	3.0263
6.8213	3.0355
6.8123	3.0481
6.8034	3.0653
6.7944	3.0867
6.7855	3.1103
6.7767	3.1334
6.7678	3.1531
6.759	3.1682
6.7502	3.18
6.7414	3.1912
6.7327	3.2049
6.7239	3.2228
6.7152	3.2439
6.7065	3.2661
6.6979	3.2893
6.6892	3.3149
6.6806	3.3448
6.672	3.3797
6.6634	3.419
6.6549	3.4599
6.6464	3.4996
6.6378	3.5351
6.6294	3.5666
6.6209	3.5941
6.6124	3.6174
6.604	3.636
6.5956	3.6499
6.5872	3.6609
6.5789	3.6724
6.5705	3.6879
6.5622	3.7118
6.5539	3.7439
6.5456	3.7812
6.5374	3.8188
6.5292	3.853
6.5209	3.8822
6.5128	3.9087
6.5046	3.9348
6.4964	3.963
6.4883	3.9925
6.4802	4.0169
6.4721	4.0243
6.464	4.0015
6.456	3.9389
6.448	3.8329
6.4399	3.6876
6.432	3.5152
6.424	3.3297
6.416	3.1436
6.4081	2.9629
6.4002	2.7906
6.3923	2.6273
6.3844	2.4737
6.3766	2.3313
6.3687	2.2024
6.3609	2.0861
6.3531	1.9784
6.3454	1.8755
6.3376	1.7751
6.3299	1.6775
6.3221	1.5858
6.3144	1.5047
6.3068	1.4368
6.2991	1.3827
6.2914	1.3405
6.2838	1.309
6.2762	1.2864
6.2686	1.2715
6.2611	1.2602
6.2535	1.2474
6.246	1.2308
6.2385	1.2089
6.231	1.1838
6.2235	1.1588
6.216	1.1389
6.2086	1.1264
6.2011	1.1197
6.1937	1.1161
6.1863	1.1151
6.179	1.1171
6.1716	1.1207
6.1643	1.1247
6.157	1.1291
6.1496	1.1317
6.1424	1.1331
6.1351	1.1362
6.1278	1.1458
6.1206	1.1631
6.1134	1.1853
6.1062	1.2076
6.099	1.2243
6.0918	1.231
6.0847	1.2286
6.0776	1.2222
6.0704	1.2174
6.0633	1.2185
6.0563	1.2267
6.0492	1.2413
6.0421	1.2604
6.0351	1.2791
6.0281	1.2949
6.0211	1.3061
6.0141	1.3118
6.0071	1.3113
6.0002	1.3054
5.9932	1.297
5.9863	1.2881
5.9794	1.2796
5.9725	1.2731
5.9657	1.2698
5.9588	1.2698
5.952	1.2731
5.9451	1.2783
5.9383	1.2846
5.9315	1.2903
5.9247	1.2934
5.918	1.2951
5.9112	1.297
5.9045	1.3032
5.8978	1.3155
5.8911	1.3341
5.8844	1.3573
5.8777	1.3817
5.8711	1.4049
5.8644	1.4257
5.8578	1.4449
5.8512	1.463
5.8446	1.481
5.838	1.4975
5.8314	1.5121
5.8249	1.5246
5.8184	1.537
5.8118	1.5515
5.8053	1.5703
5.7988	1.5937
5.7923	1.6202
5.7859	1.6478
5.7794	1.6738
5.773	1.6971
5.7666	1.7167
5.7602	1.7334
5.7538	1.7482
5.7474	1.7633
5.741	1.7796
5.7347	1.7968
5.7283	1.8143
5.722	1.8301
5.7157	1.8413
5.7094	1.8458
5.7031	1.843
5.6969	1.8332
5.6906	1.8164
5.6844	1.7937
5.6782	1.7669
5.6719	1.7389
5.6657	1.7126
5.6596	1.6901
5.6534	1.6715
5.6472	1.6556
5.6411	1.6401
5.6349	1.6234
5.6288	1.6043
5.6227	1.5829
5.6166	1.5607
5.6106	1.5379
5.6045	1.5138
5.5984	1.4882
5.5924	1.4617
5.5864	1.4365
5.5804	1.4154
5.5744	1.4006
5.5684	1.3946
5.5624	1.3987
5.5564	1.4126
5.5505	1.4358
5.5445	1.4667
5.5386	1.5032
5.5327	1.5422
5.5268	1.5786
5.5209	1.6095
5.5151	1.6339
5.5092	1.6533
5.5033	1.671
5.4975	1.6899
5.4917	1.7135
5.4859	1.743
5.4801	1.7774
5.4743	1.815
5.4685	1.8538
5.4628	1.8906
5.457	1.9222
5.4513	1.9437
5.4455	1.9528
5.4398	1.9487
5.4341	1.9328
5.4284	1.9084
5.4228	1.8803
5.4171	1.8531
5.4114	1.8301
5.4058	1.8119
5.4002	1.7985
5.3945	1.7892
5.3889	1.7817
5.3833	1.7753
5.3778	1.77
5.3722	1.7671
5.3666	1.7679
5.3611	1.7726
5.3555	1.7794
5.35	1.7859
5.3445	1.7892
5.339	1.7884
5.3335	1.7854
5.328	1.7824
5.3225	1.7829
5.3171	1.7877
5.3116	1.797
5.3062	1.8083
5.3008	1.8203
5.2954	1.8305
5.29	1.8392
5.2846	1.8458
5.2792	1.8531
5.2738	1.8629
5.2684	1.8775
5.2631	1.8987
5.2578	1.9268
5.2524	1.9593
5.2471	1.9942
5.2418	2.0296
5.2365	2.0648
5.2312	2.1002
5.226	2.1363
5.2207	2.1734
5.2154	2.2093
5.2102	2.2412
5.205	2.2658
5.1998	2.2815
5.1945	2.289
5.1893	2.2897
5.1842	2.287
5.179	2.2837
5.1738	2.2818
5.1686	2.282
5.1635	2.283
5.1584	2.2835
5.1532	2.2825
5.1481	2.2806
5.143	2.2794
5.1379	2.2797
5.1328	2.2825
5.1277	2.2875
5.1227	2.2933
5.1176	2.2964
5.1126	2.2966
5.1075	2.2943
5.1025	2.2902
5.0975	2.2854
5.0925	2.281
5.0875	2.2777
5.0825	2.2746
5.0775	2.2722
5.0726	2.2717
5.0676	2.2734
5.0627	2.2777
5.0577	2.2844
5.0528	2.2925
5.0479	2.3005
5.043	2.3071
5.038	2.3124
5.0332	2.317
5.0283	2.3217
5.0234	2.329
5.0185	2.3406
5.0137	2.3562
5.0088	2.3751
5.004	2.3969
4.9992	2.4196
4.9944	2.4424
4.9896	2.4643
4.9848	2.487
4.98	2.5114
4.9752	2.5383
4.9704	2.5703
4.9657	2.6095
4.9609	2.6562
4.9562	2.7084
4.9514	2.7632
4.9467	2.818
4.942	2.8713
4.9373	2.923
4.9326	2.9754
4.9279	3.0343
4.9232	3.1048
4.9186	3.1941
4.9139	3.3094
4.9092	3.4597
4.9046	3.6532
4.9	3.8951
4.8953	4.1846
4.8907	4.5164
4.8861	4.8804
4.8815	5.2632
4.8769	5.6534
4.8723	6.0429
4.8678	6.4258
4.8632	6.798
4.8586	7.1562
4.8541	7.4988
4.8495	7.8242
4.845	8.1331
4.8405	8.4291
4.836	8.7161
4.8315	8.9963
4.827	9.2707
4.8225	9.5399
4.818	9.8045
4.8135	10.0639
4.809	10.3204
4.8046	10.577
4.8001	10.8362
4.7957	11.0962
4.7913	11.3554
4.7868	11.61
4.7824	11.8543
4.778	12.0806
4.7736	12.2852
4.7692	12.4677
4.7648	12.6299
4.7605	12.7734
4.7561	12.9007
4.7517	13.0124
4.7474	13.1049
4.7431	13.1721
4.7387	13.2094
4.7344	13.2125
4.7301	13.1733
4.7258	13.0797
4.7215	12.9185
4.7172	12.6749
4.7129	12.3405
4.7086	11.9184
4.7043	11.4284
4.7	10.9068
4.6958	10.4005
4.6915	9.9605
4.6873	9.6325
4.6831	9.4449
4.6788	9.4076
4.6746	9.5105
4.6704	9.7291
4.6662	10.0347
4.662	10.4032
4.6578	10.8212
4.6536	11.2838
4.6495	11.7914
4.6453	12.3395
4.6411	12.918
4.637	13.5087
4.6328	14.0882
4.6287	14.6339
4.6246	15.1316
4.6205	15.5738
4.6163	15.9604
4.6122	16.2953
4.6081	16.5846
4.604	16.8351
4.6	17.0499
4.5959	17.2325
4.5918	17.3851
4.5877	17.5084
4.5837	17.6007
4.5796	17.6608
4.5756	17.685
4.5716	17.6691
4.5675	17.607
4.5635	17.4913
4.5595	17.3162
4.5555	17.0758
4.5515	16.7691
4.5475	16.4006
4.5435	15.9793
4.5395	15.516
4.5356	15.0222
4.5316	14.5064
4.5276	13.9724
4.5237	13.4219
4.5197	12.8579
4.5158	12.2882
4.5119	11.7275
4.508	11.198
4.504	10.7242
4.5001	10.3249
4.4962	10.0083
4.4923	9.7703
4.4884	9.5952
4.4846	9.4641
4.4807	9.3628
4.4768	9.2884
4.473	9.2473
4.4691	9.2516
4.4652	9.3126
4.4614	9.4335
4.4576	9.605
4.4537	9.8083
4.4499	10.022
4.4461	10.2288
4.4423	10.4197
4.4385	10.5979
4.4347	10.7735
4.4309	10.957
4.4271	11.1549
4.4233	11.3678
4.4196	11.593
4.4158	11.8267
4.412	12.0696
4.4083	12.3262
4.4045	12.6036
4.4008	12.9072
4.3971	13.241
4.3934	13.6035
4.3896	13.9913
4.3859	14.3992
4.3822	14.822
4.3785	15.2534
4.3748	15.686
4.3711	16.1128
4.3674	16.5262
4.3638	16.92
4.3601	17.2901
4.3564	17.6337
4.3528	17.9501
4.3491	18.2374
4.3455	18.4944
4.3418	18.719
4.3382	18.9109
4.3346	19.0692
4.331	19.193
4.3273	19.2793
4.3237	19.3253
4.3201	19.328
4.3165	19.2891
4.3129	19.2166
4.3094	19.1258
4.3058	19.0334
4.3022	18.9557
4.2986	18.9039
4.2951	18.882
4.2915	18.8865
4.288	18.9135
4.2844	18.9611
4.2809	19.0307
4.2774	19.1265
4.2738	19.2554
4.2703	19.4205
4.2668	19.6167
4.2633	19.8279
4.2598	20.0316
4.2563	20.2019
4.2528	20.3173
4.2493	20.3677
4.2458	20.3596
4.2424	20.3134
4.2389	20.255
4.2354	20.21
4.232	20.1943
4.2285	20.212
4.2251	20.255
4.2216	20.308
4.2182	20.3526
4.2148	20.3766
4.2113	20.3744
4.2079	20.351
4.2045	20.3178
4.2011	20.2909
4.1977	20.2869
4.1943	20.3158
4.1909	20.3807
4.1875	20.4766
4.1841	20.5941
4.1808	20.7216
4.1774	20.8479
4.174	20.9654
4.1707	21.0699
4.1673	21.1608
4.164	21.2379
4.1606	21.3025
4.1573	21.3573
4.154	21.4052
4.1506	21.4482
4.1473	21.4887
4.144	21.5283
4.1407	21.5685
4.1374	21.6083
4.1341	21.646
4.1308	21.6796
4.1275	21.7064
4.1242	21.7243
4.1209	21.7334
4.1177	21.7377
4.1144	21.7423
4.1111	21.7516
4.1079	21.7664
4.1046	21.7825
4.1014	21.7921
4.0981	21.7856
4.0949	21.7571
4.0917	21.7035
4.0884	21.6238
4.0852	21.5169
4.082	21.381
4.0788	21.214
4.0756	21.0168
4.0724	20.7917
4.0692	20.5435
4.066	20.2746
4.0628	19.9801
4.0596	19.6485
4.0565	19.2638
4.0533	18.8109
4.0501	18.2841
4.047	17.6895
4.0438	17.0454
4.0406	16.3788
4.0375	15.7209
4.0344	15.0971
4.0312	14.5231
4.0281	14.0054
4.025	13.5419
4.0218	13.124
4.0187	12.7397
4.0156	12.3787
4.0125	12.0334
4.0094	11.6994
4.0063	11.3757
4.0032	11.0664
4.0001	10.7778
3.997	10.5189
3.994	10.2978
3.9909	10.1199
3.9878	9.9883
3.9847	9.9029
3.9817	9.8598
3.9786	9.8523
3.9756	9.8729
3.9725	9.9167
3.9695	9.9808
3.9665	10.0634
3.9634	10.1685
3.9604	10.3022
3.9574	10.4718
3.9544	10.6831
3.9513	10.9389
3.9483	11.2365
3.9453	11.563
3.9423	11.8968
3.9393	12.2127
3.9363	12.4885
3.9333	12.711
3.9304	12.8785
3.9274	13
3.9244	13.09
3.9214	13.162
3.9185	13.2254
3.9155	13.2845
3.9126	13.3393
3.9096	13.3879
3.9067	13.4281
3.9037	13.4594
3.9008	13.4822
3.8979	13.4991
3.8949	13.5142
3.892	13.5288
3.8891	13.5439
3.8862	13.5577
3.8833	13.5688
3.8804	13.5754
3.8775	13.5783
3.8746	13.5793
3.8717	13.5807
3.8688	13.5852
3.8659	13.5949
3.863	13.6106
3.8601	13.6331
3.8573	13.6618
3.8544	13.6979
3.8515	13.742
3.8487	13.7977
3.8458	13.8724
3.843	13.9748
3.8401	14.1157
3.8373	14.3025
3.8344	14.5385
3.8316	14.8222
3.8288	15.1462
3.8259	15.5008
3.8231	15.8752
3.8203	16.263
3.8175	16.6625
3.8147	17.0775
3.8119	17.5197
3.8091	18.0039
3.8063	18.5448
3.8035	19.1537
3.8007	19.8299
3.7979	20.5589
3.7951	21.3099
3.7924	22.0416
3.7896	22.7117
3.7868	23.2847
3.7841	23.742
3.7813	24.0853
3.7785	24.3322
3.7758	24.5072
3.773	24.6348
3.7703	24.7339
3.7676	24.8138
3.7648	24.876
3.7621	24.9198
3.7594	24.9449
3.7566	24.9526
3.7539	24.9474
3.7512	24.9385
3.7485	24.9363
3.7458	24.9507
3.7431	24.988
3.7404	25.0505
3.7377	25.1349
3.735	25.2347
3.7323	25.3431
3.7296	25.4536
3.7269	25.5604
3.7242	25.6603
3.7216	25.7522
3.7189	25.8384
3.7162	25.9206
3.7136	26.0024
3.7109	26.0874
3.7083	26.1754
3.7056	26.2662
3.703	26.3599
3.7003	26.4594
3.6977	26.5693
3.695	26.6913
3.6924	26.8272
3.6898	26.9769
3.6872	27.1363
3.6845	27.2983
3.6819	27.4567
3.6793	27.6067
3.6767	27.7445
3.6741	27.8651
3.6715	27.9658
3.6689	28.0462
3.6663	28.1063
3.6637	28.1448
3.6611	28.162
3.6585	28.1608
3.656	28.1457
3.6534	28.1199
3.6508	28.0866
3.6482	28.0496
3.6457	28.0091
3.6431	27.9632
3.6406	27.9058
3.638	27.8344
3.6355	27.7486
3.6329	27.6505
3.6304	27.5445
3.6278	27.4364
3.6253	27.3323
3.6227	27.2356
3.6202	27.1435
3.6177	27.0521
3.6152	26.9578
3.6127	26.8569
3.6101	26.7456
3.6076	26.6229
3.6051	26.4889
3.6026	26.3439
3.6001	26.1862
3.5976	26.0142
3.5951	25.8263
3.5926	25.6196
3.5901	25.3886
3.5876	25.1275
3.5852	24.8349
3.5827	24.5162
3.5802	24.1843
3.5777	23.8613
3.5753	23.5728
3.5728	23.3403
3.5704	23.1696
3.5679	23.051
3.5654	22.9608
3.563	22.8682
3.5605	22.7452
3.5581	22.5744
3.5557	22.3514
3.5532	22.0813
3.5508	21.7717
3.5484	21.4307
3.5459	21.0627
3.5435	20.6675
3.5411	20.2421
3.5387	19.783
3.5363	19.2865
3.5338	18.7497
3.5314	18.1723
3.529	17.5615
3.5266	16.9316
3.5242	16.3047
3.5218	15.7072
3.5195	15.1653
3.5171	14.698
3.5147	14.3138
3.5123	14.009
3.5099	13.7707
3.5075	13.5826
3.5052	13.4287
3.5028	13.296
3.5004	13.1752
3.4981	13.0604
3.4957	12.9469
3.4934	12.8306
3.491	12.7083
3.4887	12.5799
3.4863	12.45
3.484	12.3272
3.4816	12.2241
3.4793	12.1564
3.477	12.1395
3.4746	12.1866
3.4723	12.3036
3.47	12.4869
3.4677	12.7203
3.4653	12.9769
3.463	13.2262
3.4607	13.4405
3.4584	13.6049
3.4561	13.7183
3.4538	13.7912
3.4515	13.8384
3.4492	13.8736
3.4469	13.9049
3.4446	13.9358
3.4423	13.964
3.44	13.9865
3.4378	14.0022
3.4355	14.0109
3.4332	14.0112
3.4309	14.0037
3.4287	13.9918
3.4264	13.9776
3.4241	13.9607
3.4219	13.9401
3.4196	13.9152
3.4174	13.8834
3.4151	13.8415
3.4129	13.7915
3.4106	13.7376
3.4084	13.6836
3.4061	13.6322
3.4039	13.5851
3.4017	13.541
3.3994	13.4953
3.3972	13.4431
3.395	13.3824
3.3928	13.314
3.3906	13.2415
3.3883	13.1714
3.3861	13.1087
3.3839	13.0558
3.3817	13.0122
3.3795	12.9756
3.3773	12.9433
3.3751	12.9122
3.3729	12.8806
3.3707	12.8462
3.3685	12.8026
3.3663	12.7435
3.3641	12.6641
3.362	12.5619
3.3598	12.4399
3.3576	12.306
3.3554	12.1765
3.3533	12.0739
3.3511	12.0256
3.3489	12.0619
3.3468	12.2102
3.3446	12.4871
3.3425	12.8904
3.3403	13.3977
3.3382	13.9693
3.336	14.5556
3.3339	15.1095
3.3317	15.595
3.3296	15.9924
3.3274	16.2992
3.3253	16.5257
3.3232	16.6879
3.321	16.8021
3.3189	16.881
3.3168	16.9346
3.3147	16.9698
3.3126	16.9904
3.3104	17.0016
3.3083	17.0112
3.3062	17.0246
3.3041	17.0446
3.302	17.0703
3.2999	17.0983
3.2978	17.1205
3.2957	17.1278
3.2936	17.1162
3.2915	17.088
3.2894	17.0478
3.2874	17.0011
3.2853	16.9518
3.2832	16.9025
3.2811	16.8519
3.279	16.7956
3.277	16.7339
3.2749	16.6695
3.2728	16.6042
3.2708	16.5399
3.2687	16.4764
3.2666	16.4142
3.2646	16.3508
3.2625	16.2844
3.2605	16.2166
3.2584	16.1489
3.2564	16.0786
3.2543	16.0032
3.2523	15.9197
3.2503	15.8266
3.2482	15.7252
3.2462	15.6213
3.2442	15.525
3.2421	15.4397
3.2401	15.3648
3.2381	15.2957
3.2361	15.2247
3.234	15.1455
3.232	15.0564
3.23	14.9636
3.228	14.8735
3.226	14.7887
3.224	14.709
3.222	14.6313
3.22	14.5516
3.218	14.4665
3.216	14.3777
3.214	14.2899
3.212	14.2049
3.21	14.1212
3.208	14.036
3.206	13.9484
3.204	13.8573
3.2021	13.7642
3.2001	13.6724
3.1981	13.5857
3.1961	13.5037
3.1942	13.424
3.1922	13.3449
3.1902	13.2659
3.1883	13.1867
3.1863	13.1082
3.1844	13.0318
3.1824	12.9584
3.1805	12.8856
3.1785	12.8124
3.1766	12.7378
3.1746	12.6605
3.1727	12.5802
3.1707	12.498
3.1688	12.4155
3.1669	12.3325
3.1649	12.2474
3.163	12.1602
3.1611	12.0701
3.1591	11.976
3.1572	11.8801
3.1553	11.7861
3.1534	11.698
3.1515	11.6183
3.1495	11.5484
3.1476	11.4886
3.1457	11.4358
3.1438	11.387
3.1419	11.3396
3.14	11.2922
3.1381	11.243
3.1362	11.1898
3.1343	11.1329
3.1324	11.0728
3.1305	11.0101
3.1286	10.948
3.1268	10.8896
3.1249	10.8376
3.123	10.7912
3.1211	10.7481
3.1192	10.7043
3.1174	10.657
3.1155	10.6044
3.1136	10.5493
3.1117	10.4952
3.1099	10.4462
3.108	10.4052
3.1061	10.3723
3.1043	10.3419
3.1024	10.3103
3.1006	10.2751
3.0987	10.2359
3.0969	10.1957
3.095	10.1594
3.0932	10.1313
3.0913	10.1108
3.0895	10.0914
3.0876	10.0679
3.0858	10.0377
3.084	10.0005
3.0821	9.961
3.0803	9.9253
3.0785	9.8986
3.0766	9.8808
3.0748	9.8669
3.073	9.8536
3.0712	9.8387
3.0694	9.8232
3.0675	9.8095
3.0657	9.799
3.0639	9.7909
3.0621	9.7801
3.0603	9.7605
3.0585	9.7303
3.0567	9.6913
3.0549	9.6483
3.0531	9.6069
3.0513	9.5715
3.0495	9.5427
3.0477	9.5183
3.0459	9.4947
3.0441	9.471
3.0423	9.4449
3.0406	9.4153
3.0388	9.3827
3.037	9.3495
3.0352	9.3172
3.0334	9.2878
3.0317	9.2624
3.0299	9.2416
3.0281	9.2229
3.0264	9.204
3.0246	9.1846
3.0228	9.1657
3.0211	9.1477
3.0193	9.1324
3.0176	9.12
3.0158	9.1105
3.014	9.104
3.0123	9.1004
3.0105	9.0989
3.0088	9.097
3.007	9.0925
3.0053	9.0848
3.0036	9.0738
3.0018	9.0619
3.0001	9.0518
2.9984	9.0436
2.9966	9.0343
2.9949	9.0202
2.9932	8.9978
2.9914	8.9669
2.9897	8.9305
2.988	8.8937
2.9863	8.8604
2.9845	8.8329
2.9828	8.8107
2.9811	8.7903
2.9794	8.7683
2.9777	8.7405
2.976	8.7032
2.9743	8.6539
2.9726	8.5903
2.9709	8.5135
2.9692	8.4278
2.9675	8.3393
2.9658	8.2537
2.9641	8.1783
2.9624	8.1175
2.9607	8.0732
2.959	8.0457
2.9573	8.0362
2.9556	8.0465
2.9539	8.0752
2.9523	8.1192
2.9506	8.1742
2.9489	8.2341
2.9472	8.2895
2.9455	8.3338
2.9439	8.3657
2.9422	8.3886
2.9405	8.408
2.9389	8.4295
2.9372	8.4597
2.9355	8.4985
2.9339	8.5403
2.9322	8.576
2.9306	8.5979
2.9289	8.602
2.9272	8.5896
2.9256	8.5676
2.9239	8.5475
2.9223	8.5374
2.9207	8.5417
2.919	8.5599
2.9174	8.5896
2.9157	8.6252
2.9141	8.6618
2.9124	8.696
2.9108	8.7254
2.9092	8.7477
2.9075	8.7614
2.9059	8.77
2.9043	8.7782
2.9027	8.7893
2.901	8.8059
2.8994	8.8276
2.8978	8.8514
2.8962	8.8728
2.8946	8.8912
2.8929	8.9085
2.8913	8.9274
2.8897	8.9497
2.8881	8.976
2.8865	9.0021
2.8849	9.024
2.8833	9.0401
2.8817	9.0523
2.8801	9.066
2.8785	9.087
2.8769	9.1195
2.8753	9.1631
2.8737	9.2107
2.8721	9.2559
2.8705	9.2932
2.8689	9.3208
2.8673	9.3425
2.8658	9.365
2.8642	9.3902
2.8626	9.4167
2.861	9.4401
2.8594	9.4557
2.8579	9.4597
2.8563	9.4536
2.8547	9.4451
2.8531	9.4456
2.8516	9.4629
2.85	9.4992
2.8484	9.5519
2.8469	9.6114
2.8453	9.6651
2.8437	9.7036
2.8422	9.7255
2.8406	9.7394
2.8391	9.756
2.8375	9.7818
2.836	9.8198
2.8344	9.8653
2.8329	9.9089
2.8313	9.9428
2.8298	9.9632
2.8282	9.9748
2.8267	9.9842
2.8252	9.9967
2.8236	10.0173
2.8221	10.0474
2.8205	10.0857
2.819	10.1297
2.8175	10.1751
2.8159	10.2201
2.8144	10.2615
2.8129	10.2972
2.8114	10.3252
2.8098	10.3443
2.8083	10.3546
2.8068	10.3582
2.8053	10.3543
2.8038	10.3433
2.8022	10.3252
2.8007	10.2988
2.7992	10.2631
2.7977	10.2211
2.7962	10.1799
2.7947	10.1457
2.7932	10.1196
2.7917	10.1005
2.7902	10.0827
2.7887	10.0572
2.7872	10.0151
2.7857	9.9543
2.7842	9.8772
2.7827	9.7878
2.7812	9.687
2.7797	9.5753
2.7782	9.4531
2.7767	9.3191
2.7752	9.1645
2.7738	8.9659
2.7723	8.6843
2.7708	8.2731
2.7693	7.6959
2.7678	6.9578
2.7664	6.1298
2.7649	5.3469
2.7634	4.7651
2.7619	4.5076
2.7605	4.62
2.759	5.0531
2.7575	5.6767
2.7561	6.331
2.7546	6.8856
2.7531	7.2679
2.7517	7.4594
2.7502	7.4747
2.7488	7.3394
2.7473	7.0751
2.7458	6.697
2.7444	6.2304
2.7429	5.7242
2.7415	5.2505
2.74	4.888
2.7386	4.7015
2.7371	4.7153
2.7357	4.9035
2.7343	5.1912
2.7328	5.4816
2.7314	5.6913
2.7299	5.7791
2.7285	5.7572
2.7271	5.6812
2.7256	5.6194
2.7242	5.6214
2.7228	5.6941
2.7213	5.806
2.7199	5.907
2.7185	5.9515
2.7171	5.9154
2.7156	5.8048
2.7142	5.6501
2.7128	5.4924
2.7114	5.3711
2.71	5.3206
2.7085	5.3691
2.7071	5.5376
2.7057	5.8322
2.7043	6.2475
2.7029	6.7645
2.7015	7.3543
2.7001	7.9849
2.6987	8.6355
2.6973	9.3019
2.6959	10.0007
2.6945	10.7556
2.6931	11.5839
2.6917	12.489
2.6903	13.4553
2.6889	14.4533
2.6875	15.4505
2.6861	16.4224
2.6847	17.3582
2.6833	18.2544
2.6819	19.1097
2.6805	19.9212
2.6791	20.6864
2.6778	21.4045
2.6764	22.0777
2.675	22.7132
2.6736	23.3233
2.6722	23.9197
2.6709	24.509
2.6695	25.0904
2.6681	25.6596
2.6667	26.213
2.6654	26.748
2.664	27.2624
2.6626	27.7558
2.6613	28.2297
2.6599	28.6823
2.6585	29.1061
2.6572	29.4978
2.6558	29.8581
2.6545	30.1902
2.6531	30.4971
2.6517	30.7843
2.6504	31.0575
2.649	31.3214
2.6477	31.5808
2.6463	31.8451
2.645	32.1167
2.6436	32.3915
2.6423	32.6634
2.6409	32.9237
2.6396	33.1649
2.6382	33.3853
2.6369	33.591
2.6356	33.7934
2.6342	33.9978
2.6329	34.2061
2.6315	34.4186
2.6302	34.6308
2.6289	34.8352
2.6275	35.0249
2.6262	35.1949
2.6249	35.3457
2.6236	35.4789
2.6222	35.5991
2.6209	35.7101
2.6196	35.8149
2.6183	35.9132
2.6169	36.0053
2.6156	36.0884
2.6143	36.1635
2.613	36.2322
2.6117	36.2936
2.6103	36.3462
2.609	36.3891
2.6077	36.4229
2.6064	36.4494
2.6051	36.4709
2.6038	36.4913
2.6025	36.5102
2.6012	36.5233
2.5999	36.5245
2.5986	36.5092
2.5973	36.4745
2.596	36.4245
2.5947	36.3711
2.5934	36.3291
2.5921	36.3077
2.5908	36.3097
2.5895	36.3308
2.5882	36.3633
2.5869	36.3982
2.5856	36.4319
2.5843	36.4644
2.583	36.4975
2.5817	36.5262
2.5805	36.5416
2.5792	36.5363
2.5779	36.5169
2.5766	36.4991
2.5753	36.5037
2.5741	36.5446
2.5728	36.6241
2.5715	36.725
2.5702	36.816
2.569	36.8705
2.5677	36.8848
2.5664	36.8726
2.5651	36.8556
2.5639	36.8528
2.5626	36.8762
2.5613	36.9193
2.5601	36.9582
2.5588	36.9672
2.5575	36.9303
2.5563	36.8375
2.555	36.686
2.5538	36.4783
2.5525	36.2269
2.5513	35.9448
2.55	35.6441
2.5487	35.3378
2.5475	35.0419
2.5462	34.7679
2.545	34.5227
2.5437	34.3064
2.5425	34.1195
2.5413	33.9596
2.54	33.8278
2.5388	33.7288
2.5375	33.6714
2.5363	33.662
2.535	33.6998
2.5338	33.7735
2.5326	33.8712
2.5313	33.9824
2.5301	34.1068
2.5289	34.2489
2.5276	34.4167
2.5264	34.6121
2.5252	34.8256
2.5239	35.038
2.5227	35.2342
2.5215	35.4084
2.5202	35.5656
2.519	35.712
2.5178	35.8539
2.5166	35.9912
2.5154	36.1161
2.5141	36.2194
2.5129	36.3016
2.5117	36.3726
2.5105	36.443
2.5093	36.5162
2.5081	36.5915
2.5068	36.6644
2.5056	36.7286
2.5044	36.7813
2.5032	36.8306
2.502	36.8865
2.5008	36.9516
2.4996	37.0181
2.4984	37.081
2.4972	37.1337
2.496	37.1705
2.4948	37.1937
2.4936	37.2155
2.4924	37.2495
2.4912	37.3033
2.49	37.3798
2.4888	37.4837
2.4876	37.6124
2.4864	37.7579
2.4852	37.9178
2.484	38.0952
2.4828	38.2919
2.4816	38.5051
2.4805	38.7288
2.4793	38.9547
2.4781	39.1702
2.4769	39.3652
2.4757	39.5399
2.4745	39.7033
2.4734	39.86
2.4722	40.0124
2.471	40.1651
2.4698	40.3198
2.4686	40.4754
2.4675	40.634
2.4663	40.7991
2.4651	40.969
2.464	41.1267
2.4628	41.2565
2.4616	41.3533
2.4604	41.4212
2.4593	41.4738
2.4581	41.5346
2.4569	41.6245
2.4558	41.749
2.4546	41.8968
2.4535	42.0514
2.4523	42.197
2.4511	42.3255
2.45	42.4385
2.4488	42.5474
2.4477	42.6588
2.4465	42.7742
2.4454	42.8919
2.4442	43.006
2.4431	43.1134
2.4419	43.2202
2.4408	43.341
2.4396	43.4941
2.4385	43.6855
2.4373	43.913
2.4362	44.1686
2.435	44.4351
2.4339	44.6973
2.4327	44.9471
2.4316	45.1815
2.4305	45.3991
2.4293	45.5923
2.4282	45.7589
2.427	45.9041
2.4259	46.0365
2.4248	46.1671
2.4236	46.3071
2.4225	46.4578
2.4214	46.6109
2.4202	46.7506
2.4191	46.8643
2.418	46.948
2.4169	47.0076
2.4157	47.0571
2.4146	47.1124
2.4135	47.1803
2.4124	47.2675
2.4112	47.371
2.4101	47.4758
2.409	47.5636
2.4079	47.6227
2.4068	47.6516
2.4056	47.6514
2.4045	47.6242
2.4034	47.5822
2.4023	47.5332
2.4012	47.4691
2.4001	47.3792
2.399	47.26
2.3979	47.1174
2.3967	46.9573
2.3956	46.7873
2.3945	46.6231
2.3934	46.475
2.3923	46.3429
2.3912	46.2216
2.3901	46.1019
2.389	45.9791
2.3879	45.8522
2.3868	45.7271
2.3857	45.6177
2.3846	45.5397
2.3835	45.5058
2.3824	45.5182
2.3813	45.5666
2.3802	45.6385
2.3791	45.7273
2.3781	45.8275
2.377	45.9386
2.3759	46.0634
2.3748	46.2063
2.3737	46.3635
2.3726	46.5252
2.3715	46.6827
2.3704	46.8255
2.3694	46.9415
2.3683	47.0198
2.3672	47.0499
2.3661	47.0243
2.365	46.9353
2.364	46.7834
2.3629	46.5748
2.3618	46.3247
2.3607	46.0531
2.3597	45.7804
2.3586	45.5249
2.3575	45.3053
2.3564	45.1302
2.3554	44.9991
2.3543	44.9074
2.3532	44.8517
2.3522	44.8222
2.3511	44.8042
2.35	44.7887
2.349	44.776
2.3479	44.7634
2.3468	44.7444
2.3458	44.7184
2.3447	44.6928
2.3436	44.6734
2.3426	44.6643
2.3415	44.6765
2.3405	44.7237
2.3394	44.8035
2.3384	44.8993
2.3373	44.9921
2.3363	45.0679
2.3352	45.1163
2.3342	45.133
2.3331	45.1249
2.3321	45.105
2.331	45.0847
2.33	45.0758
2.3289	45.0942
2.3279	45.1562
2.3268	45.2677
2.3258	45.422
2.3247	45.5978
2.3237	45.7689
2.3226	45.9156
2.3216	46.0322
2.3206	46.1255
2.3195	46.2085
2.3185	46.2896
2.3175	46.371
2.3164	46.4532
2.3154	46.5336
2.3144	46.614
2.3133	46.7028
2.3123	46.8032
2.3113	46.9152
2.3102	47.0323
2.3092	47.1526
2.3082	47.2798
2.3071	47.4131
2.3061	47.5467
2.3051	47.6753
2.3041	47.7892
2.303	47.884
2.302	47.966
2.301	48.0546
2.3	48.1696
2.299	48.317
2.2979	48.4855
2.2969	48.6539
2.2959	48.7967
2.2949	48.902
2.2939	48.9777
2.2929	49.0475
2.2918	49.1341
2.2908	49.2519
2.2898	49.3999
2.2888	49.5676
2.2878	49.7414
2.2868	49.9145
2.2858	50.089
2.2848	50.2641
2.2838	50.4332
2.2828	50.5876
2.2818	50.7221
2.2808	50.8398
2.2798	50.9534
2.2787	51.0836
2.2777	51.2465
2.2767	51.4413
2.2757	51.6518
2.2747	51.8597
2.2738	52.0495
2.2728	52.2148
2.2718	52.3574
2.2708	52.4839
2.2698	52.5999
2.2688	52.7033
2.2678	52.7918
2.2668	52.8685
2.2658	52.9371
2.2648	53.0051
2.2638	53.0783
2.2628	53.1558
2.2618	53.2316
2.2609	53.3022
2.2599	53.3744
2.2589	53.4622
2.2579	53.5771
2.2569	53.726
2.2559	53.9003
2.255	54.0731
2.254	54.2083
2.253	54.2832
2.252	54.2965
2.251	54.2702
2.2501	54.2401
2.2491	54.2468
2.2481	54.3152
2.2471	54.4411
2.2462	54.5949
2.2452	54.7404
2.2442	54.8466
2.2433	54.9045
2.2423	54.9279
2.2413	54.9483
2.2403	54.9959
2.2394	55.0823
2.2384	55.1986
2.2374	55.3266
2.2365	55.4445
2.2355	55.5431
2.2345	55.6209
2.2336	55.6787
2.2326	55.713
2.2317	55.7177
2.2307	55.6871
2.2297	55.6196
2.2288	55.519
2.2278	55.3993
2.2269	55.2703
2.2259	55.1273
2.225	54.9593
2.224	54.7559
2.2231	54.5064
2.2221	54.1999
2.2211	53.8252
2.2202	53.3837
2.2192	52.8771
2.2183	52.3
2.2173	51.632
2.2164	50.8336
2.2155	49.8425
2.2145	48.5948
2.2136	47.0562
2.2126	45.2728
2.2117	43.392
2.2107	41.6461
2.2098	40.2936
2.2088	39.5521
2.2079	39.5294
2.207	40.1919
2.206	41.3752
2.2051	42.8414
2.2041	44.3544
2.2032	45.7336
2.2023	46.8724
2.2013	47.7435
2.2004	48.3708
2.1995	48.7982
2.1985	49.0652
2.1976	49.2049
2.1967	49.2525
2.1957	49.2484
2.1948	49.2315
2.1939	49.2416
2.193	49.3025
2.192	49.4145
2.1911	49.5585
2.1902	49.7042
2.1893	49.8287
2.1883	49.921
2.1874	49.9782
2.1865	50.0088
2.1856	50.0189
2.1846	50.0136
2.1837	49.995
2.1828	49.9612
2.1819	49.9143
2.181	49.8574
2.18	49.7894
2.1791	49.7135
2.1782	49.6351
2.1773	49.5653
2.1764	49.5073
2.1755	49.4544
2.1746	49.4023
2.1736	49.3439
2.1727	49.2733
2.1718	49.2011
2.1709	49.1518
2.17	49.1506
2.1691	49.2008
2.1682	49.2869
2.1673	49.3812
2.1664	49.4504
2.1655	49.4741
2.1646	49.4595
2.1637	49.4358
2.1628	49.4434
2.1619	49.5162
2.161	49.675
2.1601	49.9184
2.1592	50.2314
2.1583	50.5911
2.1574	50.9646
2.1565	51.3156
2.1556	51.6234
2.1547	51.8832
2.1538	52.1059
2.1529	52.3202
2.152	52.5682
2.1511	52.8816
2.1502	53.2642
2.1493	53.702
2.1484	54.1778
2.1475	54.6653
2.1466	55.1397
2.1458	55.5885
2.1449	56.0075
2.144	56.3881
2.1431	56.7198
2.1422	57.0052
2.1413	57.2602
2.1404	57.4999
2.1396	57.7404
2.1387	57.9921
2.1378	58.2582
2.1369	58.5343
2.136	58.8089
2.1352	59.07
2.1343	59.3042
2.1334	59.4961
2.1325	59.632
2.1316	59.7036
2.1308	59.7275
2.1299	59.7366
2.129	59.7602
2.1281	59.8145
2.1273	59.9023
2.1264	60.015
2.1255	60.1345
2.1247	60.2454
2.1238	60.3548
2.1229	60.4718
2.122	60.5909
2.1212	60.6924
2.1203	60.757
2.1194	60.7714
2.1186	60.7278
2.1177	60.634
2.1168	60.5182
2.116	60.4086
2.1151	60.3213
2.1143	60.2665
2.1134	60.257
2.1125	60.3019
2.1117	60.4052
2.1108	60.5677
2.11	60.7878
2.1091	61.0453
2.1082	61.3029
2.1074	61.5248
2.1065	61.687
2.1057	61.7819
2.1048	61.8214
2.104	61.8314
2.1031	61.8396
2.1023	61.8563
2.1014	61.8769
2.1005	61.9008
2.0997	61.932
2.0988	61.9733
2.098	62.0284
2.0971	62.0947
2.0963	62.1581
2.0955	62.1944
2.0946	62.1896
2.0938	62.154
2.0929	62.1107
2.0921	62.0842
2.0912	62.091
2.0904	62.1332
2.0895	62.1954
2.0887	62.2552
2.0879	62.2985
2.087	62.327
2.0862	62.3629
2.0853	62.4105
2.0845	62.4962
2.0837	62.638
2.0828	62.7347
2.082	62.8979
2.0812	62.9648
2.0803	62.7218
2.0795	62.8959
2.076	62.9361
2.072	62.9532
2.068	63.0941
2.064	63.164
2.06	63.2355
2.056	63.2743
2.052	63.4551
2.048	63.5568
2.044	63.4762
2.04	63.4776
2.036	63.2748
2.032	63.0833
2.028	63.1732
2.024	63.3755
2.02	63.6774
2.016	63.6571
2.012	63.3203
2.008	63.1391
2.004	62.8319
2	62.7222
1.996	62.5268
1.992	62.5735
1.988	62.437
1.984	62.1202
1.98	61.4153
1.976	61.1564
1.972	61.0486
1.968	60.8612
1.964	60.6933
1.96	60.335
1.956	60.1267
1.952	59.8806
1.948	59.9311
1.944	59.8847
1.94	59.6637
1.936	59.512
1.932	59.425
1.928	59.3188
1.924	59.2992
1.92	59.1137
1.916	59.0736
1.912	59.1884
1.908	59.3107
1.904	59.3865
1.9	59.9591
1.896	60.8921
1.892	62.0133
1.888	62.8836
1.884	63.9456
1.88	64.3589
1.876	64.6692
1.872	65.1681
1.868	65.9601
1.864	66.3312
1.86	66.7789
1.856	67.157
1.852	67.0948
1.848	67.4658
1.844	67.3413
1.84	67.2129
1.836	67.0836
1.832	67.0335
1.828	67.1505
1.824	67.2284
1.82	67.3684
1.816	67.2222
1.812	67.3434
1.808	67.4336
1.804	67.589
1.8	67.4174
1.796	67.538
1.792	67.7839
1.788	67.7847
1.784	68.1942
1.78	68.318
1.776	68.3755
1.772	68.3674
1.768	68.3477
1.764	68.3378
1.76	68.3279
1.756	68.3279
1.752	68.4725
1.748	68.3262
1.744	68.154
1.74	68.1591
1.736	68.3188
1.732	68.5408
1.728	68.6162
1.724	68.6519
1.72	68.6924
1.716	68.6524
1.712	68.5699
1.708	68.568
1.704	68.0552
1.7	67.7056
1.696	67.8715
1.692	68.154
1.688	68.1319
1.684	68.1121
1.68	68.1409
1.676	67.8827
1.672	67.7856
1.668	67.7254
1.664	67.9487
1.66	68.4285
1.656	68.2727
1.652	68.1931
1.648	68.2695
1.644	68.3714
1.64	68.1521
1.636	68.3163
1.632	68.4635
1.628	68.4242
1.624	68.4507
1.62	68.5221
1.616	68.2976
1.612	68.0788
1.608	68.1102
1.604	67.9938
1.6	67.896
1.596	67.9754
1.592	68.055
1.588	68.3188
1.584	68.3596
1.58	68.3646
1.576	68.4534
1.572	68.376
1.568	68.4168
1.564	68.3678
1.56	68.0834
1.556	67.8716
1.552	67.7324
1.548	67.6215
1.544	67.5791
1.54	67.5644
1.536	67.5142
1.532	67.2842
1.528	67.1663
1.524	67.286
1.52	67.4898
1.516	67.2354
1.512	66.8321
1.508	66.4723
1.504	66.1606
1.5	65.9446
1.496	66.5902
1.492	66.5877
1.488	66.6146
1.484	66.3638
1.48	66.0225
1.476	65.9964
1.472	65.7096
1.468	65.537
1.464	65.6794
1.46	65.6601
1.456	65.6827
1.452	65.3566
1.448	65.1357
1.444	64.9367
1.44	64.7888
1.436	64.7888
1.432	64.6969
1.428	64.4574
1.424	64.4257
1.42	64.3414
1.416	63.5219
1.412	60.7093
1.408	57.6784
1.404	57.6134
1.4	58.4338
1.396	58.6587
1.392	58.6543
1.388	58.5937
1.384	59.4108
1.38	60.4336
1.376	61.5963
1.372	62.0527
1.368	62.7138
1.364	63.331
1.36	64.0093
1.356	64.5315
1.352	64.324
1.348	64.2888
1.344	64.5965
1.34	64.8818
1.336	65.2896
1.332	65.7386
1.328	65.9636
1.324	66.1462
1.32	66.0815
1.316	66.0077
1.312	65.9946
1.308	65.9725
1.304	65.7667
1.3	65.7344
1.296	65.7697
1.292	65.7079
1.288	65.5404
1.284	65.4591
1.28	65.4973
1.276	65.3185
1.272	65.4438
1.268	65.336
1.264	65.3929
1.26	65.5033
1.256	65.5459
1.252	65.4585
1.248	65.2367
1.244	65.0714
1.24	64.6607
1.236	64.1412
1.232	63.9763
1.228	64.0863
1.224	63.9213
1.22	63.7133
1.216	63.7229
1.212	63.6547
1.208	63.4992
1.204	63.7755
1.2	63.8092
1.196	63.8647
1.192	63.6684
1.188	63.4503
1.184	63.1988
1.18	62.9823
1.176	62.811
1.172	62.5406
1.168	62.3344
1.164	62.0493
1.16	61.8127
1.156	61.5932
1.152	61.2159
1.148	61.1482
1.144	60.7918
1.14	60.581
1.136	60.1928
1.132	59.9639
1.128	60.2688
1.124	60.3073
1.12	59.7624
1.116	59.1052
1.112	58.7404
1.108	58.584
1.104	58.6815
1.1	58.2295
1.096	58.1438
1.092	57.6186
1.088	57.103
1.084	56.4815
1.08	56.2001
1.076	55.6929
1.072	55.6144
1.068	55.1929
1.064	54.9148
1.06	54.7035
1.056	54.542
1.052	53.9042
1.048	53.5288
1.044	53.3181
1.04	52.786
1.036	52.6611
1.032	52.0611
1.028	51.8162
1.024	51.8797
1.02	51.472
1.016	51.2302
1.012	51.2167
1.008	50.5393
1.004	50.3151
1	49.9632
0.996	49.6643
0.992	49.0263
0.988	48.3625
0.984	48.3378
0.98	47.865
0.976	47.1162
0.972	46.848
0.968	46.508
0.964	45.7229
0.96	45.3618
0.956	44.9501
0.952	44.4289
0.948	44.1146
0.944	43.6524
0.94	43.3632
0.936	42.9952
0.932	42.6312
0.928	42.054
0.924	41.748
0.92	41.3552
0.916	40.9699
0.912	40.76
0.908	40.341
0.904	40.1685
0.9	39.8968
0.896	39.5698
0.892	39.389
0.888	39.2034
0.884	38.9803
0.88	38.9346
0.876	38.6594
0.872	38.6359
0.868	38.5428
0.864	38.2299
0.86	38.1604
0.856	38.1362
0.852	37.8453
0.848	37.9092
0.844	38.0432
0.84	38.2046
0.836	38.1634
0.832	38.1927
0.828	38.3456
0.824	38.5774
0.82	38.3817
0.816	38.4482
0.812	38.6835
0.808	38.9621
0.804	39.1475
0.8	39.1825
0.799	39.1825
0.798	39.183
0.797	39.1297
0.796	39.3187
0.795	39.2592
0.794	39.2312
0.793	39.4069
0.792	39.3745
0.791	39.3237
0.79	39.356
0.789	39.4021
0.788	39.331
0.787	39.1163
0.786	39.6619
0.785	39.6782
0.784	40.0388
0.783	40.0698
0.782	39.8098
0.781	39.5781
0.78	39.4444
0.779	39.5486
0.778	39.6105
0.777	39.9098
0.776	40.0104
0.775	39.7371
0.774	40.106
0.773	40.1371
0.772	40.3737
0.771	40.4125
0.77	40.5328
0.769	40.1938
0.768	40.3917
0.767	40.5013
0.766	40.2447
0.765	40.3845
0.764	40.3205
0.763	40.2826
0.762	40.545
0.761	40.5574
0.76	40.8105
0.759	40.6626
0.758	40.7682
0.757	40.6684
0.756	40.6652
0.755	40.4817
0.754	40.9372
0.753	40.7602
0.752	40.5417
0.751	40.8823
0.75	40.7819
0.749	40.3812
0.748	40.3527
0.747	40.7516
0.746	41.0896
0.745	40.7377
0.744	40.8344
0.743	40.5524
0.742	40.3483
0.741	40.1084
0.74	40.4882
0.739	40.3181
0.738	40.3264
0.737	40.3347
0.736	40.2758
0.735	40.2537
0.734	40.4063
0.733	40.6187
0.732	40.4934
0.731	40.343
0.73	40.3979
0.729	40.4282
0.728	39.8652
0.727	39.5504
0.726	39.9526
0.725	40.1167
0.724	39.859
0.723	39.6477
0.722	39.5082
0.721	39.6706
0.72	39.3672
0.719	39.188
0.718	39.4334
0.717	39.4222
0.716	39.3314
0.715	39.1655
0.714	39.0533
0.713	38.8708
0.712	38.7924
0.711	38.7165
0.71	38.2124
0.709	38.2385
0.708	38.3348
0.707	38.1519
0.706	37.7908
0.705	37.533
0.704	37.3862
0.703	37.2892
0.702	37.2388
0.701	37.0957
0.7	36.7507
0.699	36.9344
0.698	36.9921
0.697	36.912
0.696	36.6385
0.695	36.5556
0.694	36.4199
0.693	36.268
0.692	36.1451
0.691	36.0284
0.69	35.9072
0.689	35.713
0.688	35.601
0.687	35.6647
0.686	35.4679
0.685	35.4699
0.684	35.6397
0.683	35.486
0.682	35.4454
0.681	35.0724
0.68	34.8144
0.679	34.5697
0.678	34.4909
0.677	34.4383
0.676	34.4585
0.675	34.4517
0.674	34.2744
0.673	34.0682
0.672	33.7235
0.671	33.4146
0.67	33.5623
0.669	33.6806
0.668	33.3837
0.667	33.2684
0.666	33.0834
0.665	32.9475
0.664	32.8046
0.663	32.5898
0.662	32.8635
0.661	32.8287
0.66	32.7869
0.659	32.5988
0.658	32.5568
0.657	32.3916
0.656	32.0967
0.655	32.097
0.654	32.0542
0.653	31.7192
0.652	31.691
0.651	31.5342
0.65	31.3357
0.649	31.3992
0.648	31.1537
0.647	31.2887
0.646	31.0164
0.645	30.9275
0.644	30.7929
0.643	30.4343
0.642	30.1535
0.641	30.167
0.64	30.3888
0.639	30.4245
0.638	30.0661
0.637	30.0757
0.636	29.7586
0.635	29.5319
0.634	29.5627
0.633	29.5229
0.632	29.4873
0.631	29.3318
0.63	29.3582
0.629	29.3623
0.628	29.1392
0.627	28.8444
0.626	28.6044
0.625	28.6161
0.624	28.5835
0.623	28.7833
0.622	28.2993
0.621	28.2279
0.62	27.9041
0.619	27.7131
0.618	27.495
0.617	27.18
0.616	26.9296
0.615	26.9629
0.614	26.6717
0.613	26.5048
0.612	26.438
0.611	26.2717
0.61	26.3218
0.609	26.1437
0.608	26.0731
0.607	25.7331
0.606	25.6855
0.605	25.4221
0.604	25.3255
0.603	24.9451
0.602	24.8548
0.601	24.6197
0.6	24.3959
0.599	24.1697
0.598	24.0498
0.597	23.8125
0.596	23.4413
0.595	23.1009
0.594	23.1322
0.593	23.0084
0.592	22.9487
0.591	22.7505
0.59	22.1906
0.589	21.6968
0.588	21.6216
0.587	21.3447
0.586	20.9813
0.585	20.5623
0.584	20.3423
0.583	19.9307
0.582	19.8047
0.581	19.402
0.58	19.2855
0.579	18.8328
0.578	18.6075
0.577	18.5167
0.576	18.1805
0.575	17.8423
0.574	17.5957
0.573	17.3589
0.572	17.4022
0.571	17.1783
0.57	16.7653
0.569	16.5052
0.568	16.1808
0.567	15.9121
0.566	15.741
0.565	15.5698
0.564	15.2713
0.563	15.1162
0.562	14.8919
0.561	14.6164
0.56	14.3921
0.559	14.1098
0.558	13.6842
0.557	13.6943
0.556	13.6637
0.555	13.4555
0.554	13.3543
0.553	13.0362
0.552	12.8731
0.551	12.7465
0.55	12.6773
0.549	12.6731
0.548	12.5146
0.547	12.1696
0.546	12.0976
0.545	12.1193
0.544	12.011
0.543	11.7804
0.542	11.7013
0.541	11.6779
0.54	11.5905
0.539	11.4082
0.538	11.3104
0.537	11.4127
0.536	11.0471
0.535	11.0902
0.534	10.9289
0.533	10.8882
0.532	10.76
0.531	10.6856
0.53	10.8026
0.529	10.6916
0.528	10.6958
0.527	10.7229
0.526	10.5909
0.525	10.6476
0.524	10.622
0.523	10.4089
0.522	10.568
0.521	10.2468
0.52	10.3557
0.519	10.0492
0.518	10.0168
0.517	10.1445
0.516	10.0694
0.515	9.7729
0.514	9.9451
0.513	9.9211
0.512	9.9863
0.511	9.9098
0.51	9.9879
0.509	9.8759
0.508	9.8201
0.507	9.4199
0.506	9.3661
0.505	9.681
0.504	9.6045
0.503	9.6682
0.502	9.5064
0.501	9.5954
0.5	9.4876
0.499	9.3209
0.498	9.2605
0.497	9.2113
0.496	9.2193
0.495	9.2864
0.494	9.2051
0.493	9.2051
0.492	8.9996
0.491	9.0541
0.49	9.0035
0.489	8.8481
0.488	8.5736
0.487	8.9451
0.486	9.0403
0.485	9.0288
0.484	8.9694
0.483	8.6864
0.482	8.7565
0.481	8.7565
0.48	8.5795
0.479	8.6015
0.478	8.8416
0.477	8.6074
0.476	8.5402
0.475	8.5461
0.474	8.5533
0.473	8.8473
0.472	8.8473
0.471	8.9389
0.47	8.6805
0.469	8.5587
0.468	8.4143
0.467	8.124
0.466	8.2208
0.465	8.3683
0.464	8.3605
0.463	8.511
0.462	8.4931
0.461	8.4339
0.46	8.3757
0.459	7.9281
0.458	7.9456
0.457	8.2084
0.456	8.1252
0.455	7.859
0.454	7.8389
0.453	7.891
0.452	7.7633
0.451	7.6604
0.45	7.5692
0.449	7.5744
0.448	7.564
0.447	7.5846
0.446	7.8508
0.445	7.6828
0.444	7.5845
0.443	7.419
0.442	7.2981
0.441	7.1077
0.44	7.4607
0.439	7.0292
0.438	7.3061
0.437	7.0244
0.436	7.0943
0.435	6.9267
0.434	6.9051
0.433	6.8829
0.432	6.9153
0.431	6.4833
0.43	6.6169
0.429	6.5531
0.428	6.3969
0.427	6.3588
0.426	6.0994
0.425	6.0418
0.424	6.3207
0.423	6.3015
0.422	6.2127
0.421	6.115
0.42	6.2393
0.419	6.0317
0.418	5.7252
0.417	6.1513
0.416	6.0112
0.415	5.9891
0.414	6.1676
0.413	5.5505
0.412	5.8832
0.411	5.8532
0.41	5.6247
0.409	5.5707
0.408	5.5783
0.407	5.524
0.406	5.6237
0.405	5.5429
0.404	5.2827
0.403	5.3964
0.402	5.1448
0.401	5.4146
0.4	5.4477
