Name: Clinozoisite Ca2Al3(SiO4)3(OH)
Type:  Mineral
Class:   Silicates 
Subclass:   Sorosilicates (Epidote Group)
Particle Size: Fine  (0 - 74  Micrometers)
Sample No.:  clinozo.1
Owner:  JHU
Wavelength Range:  IR
Origin:  Sample from Baja California, Mexico via Smithsonian (sample 
no. NMNH 112513-2.
Description: The sample was one large (2.5 cm x 2 cm x 2 cm) crystal 
with good crystal faces, weighing 19 g.  It was dark gray in color, 
with <<1% limonitic surface contamination, which was easily removed.  
Under the microscope the sample appears to be pure and free from 
alteration.

Measurement:  Bidirectional reflectance 
First Column:  X
Second Column:  Y  
X Units:  Wavelength (micrometers)
Y Units:  Reflectance (percent)
First X Value:  25.0442
Last X Value:  2.079
Number of X Values:  2287
Additional Information: clinoz1a.txt

25.044	2.8428
24.924	3.0132
24.805	3.2314
24.686	3.1592
24.569	3.0273
24.454	3.1982
24.339	3.3271
24.225	3.2017
24.112	3.0207
24.001	2.8242
23.890	2.7363
23.781	2.7346
23.672	2.6243
23.564	2.4956
23.458	2.6074
23.352	2.6526
23.247	2.6035
23.144	2.6038
23.041	2.7373
22.939	2.8237
22.838	2.8320
22.738	2.8457
22.638	2.8599
22.540	2.9468
22.442	3.0342
22.345	3.0395
22.250	3.0137
22.154	2.9153
22.060	2.8603
21.967	2.8208
21.874	2.7695
21.782	2.7583
21.691	2.6714
21.601	2.5513
21.511	2.3569
21.422	2.1831
21.334	2.0644
21.247	1.9922
21.160	1.9536
21.074	1.9658
20.988	2.1062
20.904	2.1392
20.820	2.1079
20.737	2.1111
20.654	1.9976
20.572	1.9373
20.491	1.9851
20.410	1.9648
20.330	2.0102
20.251	2.0911
20.172	2.0837
20.094	2.0820
20.016	2.1802
19.939	2.1956
19.863	2.1987
19.787	2.1645
19.712	2.2322
19.637	2.4023
19.563	2.3831
19.489	2.3298
19.416	2.4380
19.344	2.5498
19.272	2.5395
19.201	2.5137
19.130	2.5405
19.059	2.5591
18.990	2.5881
18.920	2.5818
18.851	2.5090
18.783	2.4185
18.715	2.3833
18.648	2.3357
18.581	2.2747
18.515	2.2871
18.449	2.3428
18.384	2.3606
18.319	2.3901
18.254	2.4040
18.190	2.4294
18.126	2.4631
18.063	2.4726
18.001	2.4983
17.938	2.5461
17.876	2.5698
17.815	2.5608
17.754	2.6025
17.693	2.6819
17.633	2.7400
17.573	2.7456
17.514	2.7588
17.455	2.8044
17.396	2.8171
17.338	2.7927
17.280	2.7998
17.223	2.7856
17.166	2.7576
17.109	2.6824
17.053	2.5784
16.997	2.3894
16.942	2.1848
16.886	2.0127
16.832	1.9014
16.777	1.8279
16.723	1.7878
16.669	1.7822
16.616	1.8401
16.563	1.9019
16.510	1.9019
16.458	1.8520
16.406	1.8364
16.354	1.8149
16.302	1.7612
16.251	1.7109
16.200	1.6980
16.150	1.6357
16.100	1.6265
16.050	1.6453
16.000	1.6204
15.951	1.6265
15.902	1.6836
15.854	1.7063
15.805	1.6824
15.757	1.7256
15.710	1.7825
15.662	1.8459
15.615	1.9119
15.568	1.9480
15.521	2.0127
15.475	2.0500
15.429	2.0989
15.383	2.1540
15.338	2.1836
15.292	2.1687
15.248	2.1404
15.203	2.1086
15.158	2.0710
15.114	2.0815
15.070	2.0757
15.027	2.0684
14.983	2.0764
14.940	2.1326
14.897	2.1599
14.854	2.1748
14.812	2.1499
14.770	2.0432
14.728	1.9775
14.686	1.9551
14.645	1.9390
14.603	1.9053
14.562	1.8579
14.521	1.8174
14.481	1.7969
14.441	1.7920
14.400	1.7717
14.361	1.7129
14.321	1.6580
14.281	1.5923
14.242	1.5339
14.203	1.4983
14.164	1.4893
14.126	1.4380
14.087	1.4163
14.049	1.4368
14.011	1.4333
13.973	1.4011
13.936	1.4138
13.899	1.4153
13.861	1.4094
13.824	1.4170
13.788	1.4106
13.751	1.3884
13.715	1.3518
13.679	1.3484
13.643	1.3318
13.607	1.2957
13.571	1.3193
13.536	1.4253
13.500	1.5540
13.465	1.6741
13.430	1.7898
13.396	1.9082
13.361	2.0723
13.327	2.2202
13.293	2.3137
13.259	2.4055
13.225	2.5012
13.191	2.5857
13.158	2.6621
13.124	2.7236
13.091	2.7888
13.058	2.8320
13.026	2.8586
12.993	2.9106
12.960	2.9582
12.928	3.0002
12.896	3.0303
12.864	3.0344
12.832	3.0264
12.800	3.0264
12.769	3.0356
12.737	3.0388
12.706	3.0085
12.675	2.9807
12.644	2.9751
12.614	2.9534
12.583	2.8867
12.552	2.8232
12.522	2.7371
12.492	2.6609
12.462	2.6020
12.432	2.5198
12.402	2.4563
12.373	2.3962
12.343	2.3223
12.314	2.2866
12.285	2.2800
12.256	2.2532
12.227	2.2200
12.198	2.1882
12.169	2.1509
12.141	2.0930
12.113	2.0518
12.084	2.0164
12.056	1.9509
12.028	1.8843
12.000	1.8489
11.973	1.8264
11.945	1.7720
11.918	1.7371
11.890	1.7390
11.863	1.7224
11.836	1.6931
11.809	1.6816
11.782	1.6509
11.755	1.6162
11.729	1.6184
11.702	1.6477
11.676	1.6594
11.650	1.6904
11.624	1.7009
11.598	1.7073
11.572	1.7051
11.546	1.7139
11.520	1.7058
11.495	1.6719
11.469	1.6785
11.444	1.7029
11.419	1.7305
11.394	1.7805
11.369	1.8477
11.344	1.9263
11.319	2.0068
11.294	2.0522
11.270	2.0810
11.245	2.1133
11.221	2.1604
11.197	2.1880
11.173	2.2070
11.149	2.2102
11.125	2.1792
11.101	2.1384
11.077	2.0979
11.054	2.0601
11.030	1.9836
11.007	1.9138
10.983	1.8809
10.960	1.8462
10.937	1.7966
10.914	1.7498
10.891	1.7024
10.868	1.6377
10.846	1.5786
10.823	1.5469
10.800	1.5547
10.778	1.6101
10.755	1.6821
10.733	1.7617
10.711	1.8347
10.689	1.9145
10.667	2.0151
10.645	2.1191
10.623	2.2063
10.602	2.2856
10.580	2.3530
10.558	2.4448
10.537	2.5591
10.516	2.6509
10.494	2.7322
10.473	2.7937
10.452	2.8403
10.431	2.8928
10.410	2.9365
10.389	2.9421
10.368	2.9470
10.348	2.9575
10.327	2.9766
10.306	2.9824
10.286	2.9546
10.266	2.9382
10.245	2.9246
10.225	2.8870
10.205	2.8735
10.185	2.8691
10.165	2.8379
10.145	2.8049
10.125	2.7871
10.106	2.7768
10.086	2.7600
10.066	2.7515
10.047	2.7473
10.027	2.7202
10.008	2.6738
9.9887	2.6204
9.9695	2.5364
9.9504	2.4148
9.9313	2.2600
9.9123	2.0586
9.8934	1.8279
9.8746	1.5950
9.8558	1.3599
9.8371	1.1506
9.8185	0.97900
9.7999	0.87500
9.7814	0.82790
9.7630	0.81250
9.7447	0.81030
9.7264	0.83720
9.7082	0.88740
9.6900	0.94210
9.6719	1.0066
9.6539	1.0923
9.6360	1.2048
9.6181	1.3198
9.6003	1.4238
9.5825	1.5298
9.5649	1.6274
9.5472	1.7156
9.5297	1.7900
9.5122	1.8674
9.4948	1.9546
9.4774	2.0347
9.4601	2.1079
9.4429	2.1780
9.4257	2.2075
9.4086	2.2031
9.3916	2.1870
9.3746	2.1582
9.3577	2.1116
9.3408	2.0561
9.3240	1.9963
9.3073	1.9287
9.2906	1.8613
9.2740	1.8171
9.2574	1.7788
9.2409	1.7434
9.2245	1.7207
9.2081	1.6841
9.1918	1.6462
9.1755	1.6431
9.1593	1.6577
9.1431	1.6587
9.1270	1.6540
9.1110	1.6658
9.0950	1.6948
9.0791	1.7165
9.0632	1.7500
9.0474	1.7974
9.0316	1.8315
9.0159	1.8630
9.0003	1.8994
8.9847	1.9443
8.9691	1.9902
8.9536	2.0276
8.9382	2.0532
8.9228	2.0774
8.9075	2.0913
8.8922	2.1182
8.8770	2.1533
8.8618	2.1799
8.8467	2.2148
8.8316	2.2539
8.8166	2.2869
8.8016	2.2986
8.7867	2.3179
8.7718	2.3525
8.7570	2.3887
8.7422	2.4165
8.7275	2.4221
8.7129	2.4175
8.6982	2.4165
8.6837	2.3955
8.6692	2.3713
8.6547	2.3516
8.6403	2.3076
8.6259	2.2446
8.6116	2.1706
8.5973	2.0752
8.5830	1.9690
8.5688	1.8574
8.5547	1.7400
8.5406	1.6150
8.5266	1.4873
8.5126	1.3870
8.4986	1.2925
8.4847	1.1929
8.4708	1.1013
8.4570	1.0283
8.4432	0.98070
8.4295	0.94040
8.4158	0.91480
8.4022	0.91090
8.3886	0.91850
8.3750	0.93990
8.3615	0.97530
8.3481	1.0220
8.3347	1.0679
8.3213	1.1277
8.3079	1.1860
8.2946	1.2546
8.2814	1.3213
8.2682	1.3887
8.2550	1.4748
8.2419	1.5603
8.2288	1.6406
8.2158	1.7375
8.2028	1.8425
8.1898	1.9424
8.1769	2.0461
8.1640	2.1472
8.1512	2.2310
8.1384	2.3232
8.1256	2.4272
8.1129	2.5264
8.1002	2.6152
8.0876	2.7134
8.0750	2.8054
8.0624	2.8857
8.0499	2.9790
8.0374	3.0659
8.0250	3.1504
8.0126	3.2380
8.0002	3.3291
7.9879	3.4060
7.9756	3.4853
7.9634	3.5808
7.9512	3.6655
7.9390	3.7305
7.9268	3.7947
7.9147	3.8769
7.9027	3.9582
7.8906	4.0286
7.8786	4.1018
7.8667	4.1736
7.8548	4.2307
7.8429	4.3079
7.8310	4.3909
7.8192	4.4536
7.8075	4.5237
7.7957	4.6016
7.7840	4.6743
7.7723	4.7463
7.7607	4.8205
7.7491	4.8909
7.7375	4.9648
7.7260	5.0510
7.7145	5.1313
7.7031	5.2036
7.6916	5.2927
7.6802	5.3767
7.6689	5.4451
7.6575	5.5261
7.6462	5.6238
7.6350	5.7097
7.6238	5.7876
7.6126	5.8772
7.6014	5.9682
7.5903	6.0430
7.5792	6.1213
7.5681	6.1987
7.5571	6.2605
7.5461	6.3288
7.5351	6.3965
7.5242	6.4453
7.5133	6.4980
7.5024	6.5652
7.4916	6.6142
7.4807	6.6496
7.4700	6.6994
7.4592	6.7597
7.4485	6.7998
7.4378	6.8349
7.4272	6.8811
7.4165	6.9223
7.4059	6.9685
7.3954	7.0246
7.3848	7.0659
7.3743	7.0962
7.3639	7.1440
7.3534	7.1846
7.3430	7.2097
7.3326	7.2429
7.3223	7.2837
7.3119	7.3076
7.3016	7.3259
7.2914	7.3589
7.2811	7.3799
7.2709	7.3921
7.2607	7.4214
7.2506	7.4468
7.2404	7.4714
7.2303	7.5102
7.2203	7.5508
7.2102	7.5713
7.2002	7.6011
7.1902	7.6452
7.1803	7.6792
7.1703	7.6897
7.1604	7.7156
7.1506	7.7431
7.1407	7.7651
7.1309	7.7912
7.1211	7.8161
7.1113	7.8262
7.1016	7.8498
7.0919	7.8891
7.0822	7.9126
7.0725	7.9282
7.0629	7.9641
7.0533	7.9978
7.0437	8.0305
7.0341	8.0762
7.0246	8.1211
7.0151	8.1531
7.0056	8.1972
6.9962	8.2353
6.9867	8.2661
6.9773	8.2922
6.9679	8.3105
6.9586	8.3291
6.9493	8.3523
6.9400	8.3728
6.9307	8.3967
6.9214	8.4204
6.9122	8.4441
6.9030	8.4770
6.8938	8.5097
6.8847	8.5232
6.8755	8.5437
6.8664	8.5708
6.8573	8.5969
6.8483	8.6233
6.8393	8.6545
6.8302	8.6716
6.8213	8.6821
6.8123	8.7021
6.8034	8.7268
6.7944	8.7375
6.7855	8.7615
6.7767	8.7890
6.7678	8.7890
6.7590	8.7942
6.7502	8.8103
6.7414	8.8108
6.7327	8.8047
6.7239	8.8125
6.7152	8.8191
6.7065	8.8122
6.6979	8.8115
6.6892	8.8132
6.6806	8.8110
6.6720	8.8191
6.6634	8.8371
6.6549	8.8315
6.6464	8.8135
6.6378	8.8183
6.6294	8.8274
6.6209	8.8296
6.6124	8.8435
6.6040	8.8557
6.5956	8.8484
6.5872	8.8493
6.5789	8.8628
6.5705	8.8655
6.5622	8.8777
6.5539	8.8955
6.5456	8.9070
6.5374	8.9092
6.5292	8.9277
6.5209	8.9543
6.5128	8.9607
6.5046	8.9631
6.4964	8.9802
6.4883	8.9988
6.4802	9.0156
6.4721	9.0442
6.4640	9.0627
6.4560	9.0681
6.4480	9.0984
6.4399	9.1426
6.4320	9.1631
6.4240	9.1794
6.4160	9.2156
6.4081	9.2612
6.4002	9.2929
6.3923	9.3281
6.3844	9.3552
6.3766	9.3662
6.3687	9.3957
6.3609	9.4214
6.3531	9.4233
6.3454	9.4282
6.3376	9.4460
6.3299	9.4555
6.3221	9.4516
6.3144	9.4602
6.3068	9.4719
6.2991	9.4675
6.2914	9.4709
6.2838	9.4746
6.2762	9.4668
6.2686	9.4607
6.2611	9.4616
6.2535	9.4441
6.2460	9.4240
6.2385	9.4236
6.2310	9.4021
6.2235	9.3652
6.2160	9.3454
6.2086	9.3237
6.2011	9.2783
6.1937	9.2302
6.1863	9.1833
6.1790	9.1360
6.1716	9.0903
6.1643	9.0407
6.1570	8.9770
6.1496	8.9099
6.1424	8.8452
6.1351	8.7912
6.1278	8.7173
6.1206	8.6323
6.1134	8.5666
6.1062	8.4985
6.0990	8.4172
6.0918	8.3408
6.0847	8.2676
6.0776	8.1919
6.0704	8.1350
6.0633	8.0815
6.0563	8.0156
6.0492	7.9597
6.0421	7.9380
6.0351	7.9045
6.0281	7.8550
6.0211	7.8205
6.0141	7.7922
6.0071	7.7532
6.0002	7.7214
5.9932	7.6936
5.9863	7.6638
5.9794	7.6355
5.9725	7.6057
5.9657	7.5703
5.9588	7.5354
5.9520	7.5068
5.9451	7.4712
5.9383	7.4350
5.9315	7.4128
5.9247	7.3950
5.9180	7.3764
5.9112	7.3716
5.9045	7.3703
5.8978	7.3638
5.8911	7.3738
5.8844	7.3909
5.8777	7.4094
5.8711	7.4314
5.8644	7.4614
5.8578	7.4944
5.8512	7.5149
5.8446	7.5354
5.8380	7.5715
5.8314	7.5967
5.8249	7.6062
5.8184	7.6323
5.8118	7.6492
5.8053	7.6555
5.7988	7.6721
5.7923	7.6882
5.7859	7.6899
5.7794	7.6902
5.7730	7.7004
5.7666	7.7033
5.7602	7.7087
5.7538	7.7141
5.7474	7.7092
5.7410	7.7029
5.7347	7.7024
5.7283	7.7009
5.7220	7.6855
5.7157	7.6684
5.7094	7.6614
5.7031	7.6528
5.6969	7.6401
5.6906	7.6335
5.6844	7.6262
5.6782	7.6155
5.6719	7.6174
5.6657	7.6221
5.6596	7.6257
5.6534	7.6325
5.6472	7.6394
5.6411	7.6538
5.6349	7.6741
5.6288	7.6938
5.6227	7.7185
5.6166	7.7419
5.6106	7.7724
5.6045	7.8025
5.5984	7.8403
5.5924	7.8789
5.5864	7.9253
5.5804	7.9765
5.5744	8.0400
5.5684	8.1028
5.5624	8.1689
5.5564	8.2466
5.5505	8.3227
5.5445	8.3996
5.5386	8.4834
5.5327	8.5808
5.5268	8.6706
5.5209	8.7500
5.5151	8.8413
5.5092	8.9409
5.5033	9.0246
5.4975	9.0996
5.4917	9.1902
5.4859	9.2698
5.4801	9.3403
5.4743	9.4233
5.4685	9.5078
5.4628	9.5669
5.4570	9.6262
5.4513	9.6914
5.4455	9.7361
5.4398	9.7712
5.4341	9.8169
5.4284	9.8489
5.4228	9.8728
5.4171	9.9214
5.4114	9.9668
5.4058	9.9946
5.4002	10.031
5.3945	10.071
5.3889	10.103
5.3833	10.127
5.3778	10.156
5.3722	10.178
5.3666	10.178
5.3611	10.181
5.3555	10.191
5.3500	10.183
5.3445	10.179
5.3390	10.189
5.3335	10.188
5.3280	10.186
5.3225	10.199
5.3171	10.213
5.3116	10.221
5.3062	10.234
5.3008	10.244
5.2954	10.250
5.2900	10.254
5.2846	10.258
5.2792	10.245
5.2738	10.227
5.2684	10.215
5.2631	10.203
5.2578	10.190
5.2524	10.170
5.2471	10.154
5.2418	10.134
5.2365	10.108
5.2312	10.087
5.2260	10.064
5.2207	10.038
5.2154	10.022
5.2102	10.006
5.2050	9.9822
5.1998	9.9619
5.1945	9.9543
5.1893	9.9572
5.1842	9.9731
5.1790	9.9988
5.1738	10.045
5.1686	10.090
5.1635	10.152
5.1584	10.236
5.1532	10.316
5.1481	10.410
5.1430	10.507
5.1379	10.583
5.1328	10.651
5.1277	10.711
5.1227	10.763
5.1176	10.800
5.1126	10.827
5.1075	10.840
5.1025	10.831
5.0975	10.830
5.0925	10.834
5.0875	10.826
5.0825	10.816
5.0775	10.823
5.0726	10.822
5.0676	10.829
5.0627	10.834
5.0577	10.834
5.0528	10.832
5.0479	10.830
5.0430	10.816
5.0380	10.798
5.0332	10.788
5.0283	10.784
5.0234	10.766
5.0185	10.738
5.0137	10.727
5.0088	10.705
5.0040	10.663
4.9992	10.623
4.9944	10.572
4.9896	10.484
4.9848	10.374
4.9800	10.245
4.9752	10.081
4.9704	9.9033
4.9657	9.7148
4.9609	9.5102
4.9562	9.3034
4.9514	9.1159
4.9467	8.9431
4.9420	8.7837
4.9373	8.6614
4.9326	8.5759
4.9279	8.5056
4.9232	8.4519
4.9186	8.4377
4.9139	8.4443
4.9092	8.4472
4.9046	8.4568
4.9000	8.4761
4.8953	8.4966
4.8907	8.5058
4.8861	8.4866
4.8815	8.4487
4.8769	8.3911
4.8723	8.3266
4.8678	8.2627
4.8632	8.2026
4.8586	8.1567
4.8541	8.1596
4.8495	8.2212
4.8450	8.3291
4.8405	8.4797
4.8360	8.6628
4.8315	8.8528
4.8270	9.0327
4.8225	9.1911
4.8180	9.3310
4.8135	9.4699
4.8090	9.5991
4.8046	9.7092
4.8001	9.8025
4.7957	9.8994
4.7913	9.9970
4.7868	10.099
4.7824	10.216
4.7780	10.335
4.7736	10.455
4.7692	10.604
4.7648	10.772
4.7605	10.944
4.7561	11.118
4.7517	11.301
4.7474	11.486
4.7431	11.649
4.7387	11.809
4.7344	11.970
4.7301	12.092
4.7258	12.209
4.7215	12.325
4.7172	12.410
4.7129	12.477
4.7086	12.541
4.7043	12.585
4.7000	12.611
4.6958	12.639
4.6915	12.660
4.6873	12.668
4.6831	12.678
4.6788	12.686
4.6746	12.696
4.6704	12.704
4.6662	12.717
4.6620	12.726
4.6578	12.722
4.6536	12.715
4.6495	12.697
4.6453	12.660
4.6411	12.616
4.6370	12.571
4.6328	12.520
4.6287	12.474
4.6246	12.430
4.6205	12.391
4.6163	12.362
4.6122	12.364
4.6081	12.387
4.6040	12.420
4.6000	12.479
4.5959	12.545
4.5918	12.608
4.5877	12.682
4.5837	12.759
4.5796	12.830
4.5756	12.911
4.5716	12.998
4.5675	13.093
4.5635	13.186
4.5595	13.281
4.5555	13.375
4.5515	13.464
4.5475	13.558
4.5435	13.664
4.5395	13.759
4.5356	13.850
4.5316	13.952
4.5276	14.043
4.5237	14.128
4.5197	14.230
4.5158	14.330
4.5119	14.411
4.5080	14.496
4.5040	14.597
4.5001	14.689
4.4962	14.758
4.4923	14.836
4.4884	14.921
4.4846	15.003
4.4807	15.092
4.4768	15.171
4.4730	15.222
4.4691	15.288
4.4652	15.367
4.4614	15.437
4.4576	15.509
4.4537	15.571
4.4499	15.636
4.4461	15.700
4.4423	15.767
4.4385	15.838
4.4347	15.893
4.4309	15.946
4.4271	16.005
4.4233	16.056
4.4196	16.099
4.4158	16.147
4.4120	16.194
4.4083	16.223
4.4045	16.253
4.4008	16.293
4.3971	16.324
4.3934	16.355
4.3896	16.379
4.3859	16.404
4.3822	16.426
4.3785	16.449
4.3748	16.473
4.3711	16.491
4.3674	16.510
4.3638	16.531
4.3601	16.541
4.3564	16.557
4.3528	16.589
4.3491	16.610
4.3455	16.624
4.3418	16.637
4.3382	16.659
4.3346	16.680
4.3310	16.694
4.3273	16.704
4.3237	16.721
4.3201	16.738
4.3165	16.760
4.3129	16.767
4.3094	16.769
4.3058	16.786
4.3022	16.803
4.2986	16.805
4.2951	16.820
4.2915	16.836
4.2880	16.841
4.2844	16.850
4.2809	16.870
4.2774	16.888
4.2738	16.896
4.2703	16.912
4.2668	16.929
4.2633	16.930
4.2598	16.939
4.2563	16.957
4.2528	16.961
4.2493	16.966
4.2458	16.987
4.2424	16.993
4.2389	16.997
4.2354	17.020
4.2320	17.031
4.2285	17.035
4.2251	17.043
4.2216	17.051
4.2182	17.059
4.2148	17.070
4.2113	17.084
4.2079	17.093
4.2045	17.093
4.2011	17.115
4.1977	17.138
4.1943	17.137
4.1909	17.148
4.1875	17.168
4.1841	17.172
4.1808	17.181
4.1774	17.198
4.1740	17.212
4.1707	17.221
4.1673	17.233
4.1640	17.236
4.1606	17.242
4.1573	17.256
4.1540	17.265
4.1506	17.271
4.1473	17.272
4.1440	17.283
4.1407	17.289
4.1374	17.287
4.1341	17.288
4.1308	17.296
4.1275	17.298
4.1242	17.300
4.1209	17.306
4.1177	17.309
4.1144	17.307
4.1111	17.310
4.1079	17.307
4.1046	17.297
4.1014	17.305
4.0981	17.319
4.0949	17.308
4.0917	17.298
4.0884	17.305
4.0852	17.298
4.0820	17.280
4.0788	17.278
4.0756	17.284
4.0724	17.260
4.0692	17.242
4.0660	17.243
4.0628	17.240
4.0596	17.223
4.0565	17.219
4.0533	17.204
4.0501	17.180
4.0470	17.166
4.0438	17.146
4.0406	17.122
4.0375	17.102
4.0344	17.076
4.0312	17.045
4.0281	17.022
4.0250	17.013
4.0218	16.986
4.0187	16.954
4.0156	16.945
4.0125	16.927
4.0094	16.917
4.0063	16.911
4.0032	16.910
4.0001	16.917
3.9970	16.931
3.9940	16.948
3.9909	16.959
3.9878	16.979
3.9847	17.007
3.9817	17.037
3.9786	17.047
3.9756	17.064
3.9725	17.090
3.9695	17.108
3.9665	17.111
3.9634	17.120
3.9604	17.136
3.9574	17.145
3.9544	17.157
3.9513	17.168
3.9483	17.170
3.9453	17.182
3.9423	17.199
3.9393	17.196
3.9363	17.198
3.9333	17.212
3.9304	17.211
3.9274	17.217
3.9244	17.228
3.9214	17.229
3.9185	17.230
3.9155	17.232
3.9126	17.240
3.9096	17.242
3.9067	17.244
3.9037	17.254
3.9008	17.260
3.8979	17.268
3.8949	17.278
3.8920	17.273
3.8891	17.263
3.8862	17.266
3.8833	17.268
3.8804	17.267
3.8775	17.262
3.8746	17.261
3.8717	17.263
3.8688	17.262
3.8659	17.261
3.8630	17.266
3.8601	17.264
3.8573	17.266
3.8544	17.263
3.8515	17.258
3.8487	17.247
3.8458	17.246
3.8430	17.249
3.8401	17.242
3.8373	17.237
3.8344	17.230
3.8316	17.222
3.8288	17.223
3.8259	17.228
3.8231	17.218
3.8203	17.212
3.8175	17.202
3.8147	17.188
3.8119	17.171
3.8091	17.166
3.8063	17.165
3.8035	17.157
3.8007	17.144
3.7979	17.132
3.7951	17.116
3.7924	17.102
3.7896	17.098
3.7868	17.081
3.7841	17.057
3.7813	17.049
3.7785	17.038
3.7758	17.019
3.7730	17.006
3.7703	16.991
3.7676	16.979
3.7648	16.967
3.7621	16.949
3.7594	16.929
3.7566	16.925
3.7539	16.919
3.7512	16.900
3.7485	16.888
3.7458	16.880
3.7431	16.871
3.7404	16.860
3.7377	16.840
3.7350	16.828
3.7323	16.823
3.7296	16.807
3.7269	16.792
3.7242	16.780
3.7216	16.771
3.7189	16.764
3.7162	16.748
3.7136	16.725
3.7109	16.720
3.7083	16.723
3.7056	16.714
3.7030	16.701
3.7003	16.696
3.6977	16.691
3.6950	16.673
3.6924	16.668
3.6898	16.661
3.6872	16.649
3.6845	16.633
3.6819	16.613
3.6793	16.604
3.6767	16.602
3.6741	16.585
3.6715	16.568
3.6689	16.558
3.6663	16.538
3.6637	16.521
3.6611	16.508
3.6585	16.491
3.6560	16.470
3.6534	16.445
3.6508	16.421
3.6482	16.404
3.6457	16.390
3.6431	16.378
3.6406	16.358
3.6380	16.335
3.6355	16.307
3.6329	16.290
3.6304	16.284
3.6278	16.276
3.6253	16.274
3.6227	16.253
3.6202	16.230
3.6177	16.220
3.6152	16.219
3.6127	16.213
3.6101	16.203
3.6076	16.190
3.6051	16.177
3.6026	16.175
3.6001	16.167
3.5976	16.150
3.5951	16.143
3.5926	16.133
3.5901	16.117
3.5876	16.101
3.5852	16.086
3.5827	16.076
3.5802	16.063
3.5777	16.048
3.5753	16.020
3.5728	16.004
3.5704	15.991
3.5679	15.971
3.5654	15.951
3.5630	15.930
3.5605	15.896
3.5581	15.862
3.5557	15.839
3.5532	15.816
3.5508	15.788
3.5484	15.756
3.5459	15.721
3.5435	15.683
3.5411	15.636
3.5387	15.601
3.5363	15.571
3.5338	15.536
3.5314	15.498
3.5290	15.458
3.5266	15.407
3.5242	15.354
3.5218	15.313
3.5195	15.250
3.5171	15.188
3.5147	15.113
3.5123	15.019
3.5099	14.910
3.5075	14.808
3.5052	14.731
3.5028	14.692
3.5004	14.670
3.4981	14.653
3.4957	14.666
3.4934	14.691
3.4910	14.701
3.4887	14.692
3.4863	14.680
3.4840	14.667
3.4816	14.643
3.4793	14.613
3.4770	14.594
3.4746	14.585
3.4723	14.569
3.4700	14.548
3.4677	14.522
3.4653	14.493
3.4630	14.460
3.4607	14.426
3.4584	14.386
3.4561	14.347
3.4538	14.313
3.4515	14.280
3.4492	14.249
3.4469	14.205
3.4446	14.177
3.4423	14.145
3.4400	14.093
3.4378	14.054
3.4355	14.026
3.4332	13.976
3.4309	13.918
3.4287	13.841
3.4264	13.753
3.4241	13.679
3.4219	13.620
3.4196	13.575
3.4174	13.521
3.4151	13.506
3.4129	13.534
3.4106	13.570
3.4084	13.606
3.4061	13.637
3.4039	13.678
3.4017	13.717
3.3994	13.746
3.3972	13.769
3.3950	13.773
3.3928	13.772
3.3906	13.765
3.3883	13.743
3.3861	13.714
3.3839	13.684
3.3817	13.651
3.3795	13.607
3.3773	13.582
3.3751	13.570
3.3729	13.564
3.3707	13.561
3.3685	13.561
3.3663	13.545
3.3641	13.546
3.3620	13.554
3.3598	13.547
3.3576	13.519
3.3554	13.500
3.3533	13.485
3.3511	13.452
3.3489	13.425
3.3468	13.399
3.3446	13.368
3.3425	13.328
3.3403	13.287
3.3382	13.248
3.3360	13.208
3.3339	13.154
3.3317	13.090
3.3296	13.031
3.3274	12.976
3.3253	12.918
3.3232	12.859
3.3210	12.783
3.3189	12.703
3.3168	12.638
3.3147	12.578
3.3126	12.513
3.3104	12.428
3.3083	12.353
3.3062	12.284
3.3041	12.213
3.3020	12.151
3.2999	12.082
3.2978	12.011
3.2957	11.952
3.2936	11.897
3.2915	11.838
3.2894	11.785
3.2874	11.730
3.2853	11.673
3.2832	11.622
3.2811	11.565
3.2790	11.523
3.2770	11.494
3.2749	11.459
3.2728	11.405
3.2708	11.357
3.2687	11.325
3.2666	11.285
3.2646	11.244
3.2625	11.213
3.2605	11.176
3.2584	11.129
3.2564	11.071
3.2543	11.015
3.2523	10.965
3.2503	10.920
3.2482	10.869
3.2462	10.808
3.2442	10.746
3.2421	10.683
3.2401	10.608
3.2381	10.540
3.2361	10.468
3.2340	10.386
3.2320	10.309
3.2300	10.228
3.2280	10.132
3.2260	10.034
3.2240	9.9433
3.2220	9.8635
3.2200	9.7839
3.2180	9.7011
3.2160	9.6113
3.2140	9.5183
3.2120	9.4345
3.2100	9.3506
3.2080	9.2724
3.2060	9.1916
3.2040	9.1203
3.2021	9.0420
3.2001	8.9758
3.1981	8.9145
3.1961	8.8532
3.1942	8.7942
3.1922	8.7275
3.1902	8.6665
3.1883	8.6184
3.1863	8.5642
3.1844	8.5097
3.1824	8.4609
3.1805	8.4116
3.1785	8.3640
3.1766	8.2998
3.1746	8.2390
3.1727	8.1877
3.1707	8.1306
3.1688	8.0576
3.1669	7.9885
3.1649	7.9223
3.1630	7.8503
3.1611	7.7737
3.1591	7.6914
3.1572	7.6069
3.1553	7.5168
3.1534	7.4260
3.1515	7.3442
3.1495	7.2654
3.1476	7.1699
3.1457	7.0730
3.1438	6.9775
3.1419	6.8840
3.1400	6.7951
3.1381	6.7004
3.1362	6.6140
3.1343	6.5347
3.1324	6.4526
3.1305	6.3662
3.1286	6.2827
3.1268	6.2080
3.1249	6.1157
3.1230	6.0386
3.1211	5.9682
3.1192	5.8850
3.1174	5.7932
3.1155	5.7285
3.1136	5.6721
3.1117	5.5969
3.1099	5.5129
3.1080	5.4358
3.1061	5.3721
3.1043	5.3039
3.1024	5.2302
3.1006	5.1560
3.0987	5.0996
3.0969	5.0442
3.0950	4.9809
3.0932	4.9160
3.0913	4.8647
3.0895	4.8235
3.0876	4.7739
3.0858	4.7190
3.0840	4.6623
3.0821	4.6213
3.0803	4.5918
3.0785	4.5486
3.0766	4.5139
3.0748	4.4797
3.0730	4.4497
3.0712	4.4194
3.0694	4.4058
3.0675	4.3979
3.0657	4.3794
3.0639	4.3591
3.0621	4.3506
3.0603	4.3469
3.0585	4.3391
3.0567	4.3203
3.0549	4.3122
3.0531	4.3100
3.0513	4.2798
3.0495	4.2417
3.0477	4.2248
3.0459	4.2026
3.0441	4.1785
3.0423	4.1475
3.0406	4.0901
3.0388	4.0212
3.0370	3.9639
3.0352	3.8830
3.0334	3.7925
3.0317	3.7046
3.0299	3.6145
3.0281	3.5146
3.0264	3.4111
3.0246	3.3000
3.0228	3.1860
3.0211	3.0613
3.0193	2.9402
3.0176	2.8181
3.0158	2.7014
3.0140	2.6023
3.0123	2.5017
3.0105	2.4075
3.0088	2.3171
3.0070	2.2375
3.0053	2.1706
3.0036	2.1081
3.0018	2.0588
3.0001	2.0229
2.9984	1.9812
2.9966	1.9563
2.9949	1.9380
2.9932	1.8914
2.9914	1.8618
2.9897	1.8699
2.9880	1.8574
2.9863	1.8308
2.9845	1.8137
2.9828	1.7986
2.9811	1.7944
2.9794	1.8000
2.9777	1.7949
2.9760	1.8079
2.9743	1.8306
2.9726	1.8181
2.9709	1.8245
2.9692	1.8528
2.9675	1.8867
2.9658	1.9080
2.9641	1.9460
2.9624	2.0012
2.9607	2.0442
2.9590	2.1030
2.9573	2.1702
2.9556	2.2373
2.9539	2.3176
2.9523	2.4050
2.9506	2.4871
2.9489	2.5774
2.9472	2.6697
2.9455	2.7561
2.9439	2.8486
2.9422	2.9553
2.9405	3.0569
2.9389	3.1516
2.9372	3.2524
2.9355	3.3401
2.9339	3.4224
2.9322	3.5063
2.9306	3.5857
2.9289	3.6553
2.9272	3.7195
2.9256	3.7744
2.9239	3.8113
2.9223	3.8474
2.9207	3.8747
2.9190	3.8965
2.9174	3.9123
2.9157	3.9280
2.9141	3.9617
2.9124	3.9792
2.9108	4.0027
2.9092	4.0127
2.9075	4.0068
2.9059	4.0276
2.9043	4.0454
2.9027	4.0566
2.9010	4.0727
2.8994	4.0918
2.8978	4.1206
2.8962	4.1807
2.8946	4.2412
2.8929	4.3037
2.8913	4.3909
2.8897	4.4907
2.8881	4.5930
2.8865	4.6926
2.8849	4.8161
2.8833	4.9553
2.8817	5.0691
2.8801	5.1797
2.8785	5.3193
2.8769	5.4663
2.8753	5.5989
2.8737	5.7197
2.8721	5.8596
2.8705	5.9946
2.8689	6.1308
2.8673	6.2517
2.8658	6.3645
2.8642	6.4953
2.8626	6.6355
2.8610	6.7580
2.8594	6.8755
2.8579	7.0017
2.8563	7.1260
2.8547	7.2590
2.8531	7.3808
2.8516	7.4939
2.8500	7.6191
2.8484	7.7536
2.8469	7.8764
2.8453	7.9897
2.8437	8.0842
2.8422	8.1762
2.8406	8.2739
2.8391	8.3625
2.8375	8.4243
2.8360	8.4731
2.8344	8.4927
2.8329	8.4499
2.8313	8.3088
2.8298	8.0854
2.8282	7.8410
2.8267	7.6325
2.8252	7.5129
2.8236	7.5119
2.8221	7.6645
2.8205	7.9336
2.8190	8.2358
2.8175	8.5432
2.8159	8.7939
2.8144	8.9670
2.8129	9.0395
2.8114	9.0134
2.8098	8.9575
2.8083	8.9260
2.8068	8.9189
2.8053	8.9956
2.8038	9.2004
2.8022	9.4682
2.8007	9.7553
2.7992	10.040
2.7977	10.291
2.7962	10.486
2.7947	10.662
2.7932	10.787
2.7917	10.883
2.7902	10.982
2.7887	11.076
2.7872	11.179
2.7857	11.295
2.7842	11.406
2.7827	11.533
2.7812	11.672
2.7797	11.800
2.7782	11.924
2.7767	12.054
2.7752	12.183
2.7738	12.296
2.7723	12.417
2.7708	12.511
2.7693	12.606
2.7678	12.699
2.7664	12.775
2.7649	12.852
2.7634	12.913
2.7619	12.971
2.7605	13.035
2.7590	13.103
2.7575	13.177
2.7561	13.258
2.7546	13.368
2.7531	13.477
2.7517	13.552
2.7502	13.635
2.7488	13.719
2.7473	13.776
2.7458	13.830
2.7444	13.872
2.7429	13.915
2.7415	13.975
2.7400	14.049
2.7386	14.119
2.7371	14.139
2.7357	14.170
2.7343	14.196
2.7328	14.216
2.7314	14.283
2.7299	14.373
2.7285	14.465
2.7271	14.566
2.7256	14.665
2.7242	14.767
2.7228	14.859
2.7213	14.930
2.7199	15.027
2.7185	15.154
2.7171	15.282
2.7156	15.410
2.7142	15.494
2.7128	15.534
2.7114	15.591
2.7100	15.655
2.7085	15.683
2.7071	15.677
2.7057	15.686
2.7043	15.724
2.7029	15.774
2.7015	15.834
2.7001	15.931
2.6987	16.063
2.6973	16.202
2.6959	16.333
2.6945	16.455
2.6931	16.560
2.6917	16.663
2.6903	16.769
2.6889	16.870
2.6875	16.971
2.6861	17.065
2.6847	17.135
2.6833	17.195
2.6819	17.258
2.6805	17.327
2.6791	17.378
2.6778	17.431
2.6764	17.496
2.6750	17.556
2.6736	17.600
2.6722	17.658
2.6709	17.705
2.6695	17.755
2.6681	17.812
2.6667	17.841
2.6654	17.881
2.6640	17.928
2.6626	17.934
2.6613	17.934
2.6599	17.965
2.6585	17.998
2.6572	18.021
2.6558	18.032
2.6545	18.038
2.6531	18.059
2.6517	18.087
2.6504	18.094
2.6490	18.107
2.6477	18.137
2.6463	18.140
2.6450	18.156
2.6436	18.169
2.6423	18.194
2.6409	18.190
2.6396	18.186
2.6382	18.204
2.6369	18.237
2.6356	18.221
2.6342	18.216
2.6329	18.232
2.6315	18.250
2.6302	18.269
2.6289	18.293
2.6275	18.290
2.6262	18.310
2.6249	18.317
2.6236	18.326
2.6222	18.316
2.6209	18.336
2.6196	18.396
2.6183	18.406
2.6169	18.418
2.6156	18.447
2.6143	18.476
2.6130	18.476
2.6117	18.474
2.6103	18.494
2.6090	18.521
2.6077	18.542
2.6064	18.553
2.6051	18.559
2.6038	18.572
2.6025	18.569
2.6012	18.577
2.5999	18.608
2.5986	18.619
2.5973	18.635
2.5960	18.635
2.5947	18.646
2.5934	18.662
2.5921	18.667
2.5908	18.677
2.5895	18.672
2.5882	18.666
2.5869	18.673
2.5856	18.690
2.5843	18.685
2.5830	18.715
2.5817	18.728
2.5805	18.720
2.5792	18.714
2.5779	18.722
2.5766	18.746
2.5753	18.738
2.5741	18.723
2.5728	18.744
2.5715	18.746
2.5702	18.731
2.5690	18.732
2.5677	18.735
2.5664	18.723
2.5651	18.715
2.5639	18.729
2.5626	18.767
2.5613	18.788
2.5601	18.765
2.5588	18.768
2.5575	18.764
2.5563	18.761
2.5550	18.764
2.5538	18.770
2.5525	18.800
2.5513	18.826
2.5500	18.813
2.5487	18.805
2.5475	18.815
2.5462	18.820
2.5450	18.829
2.5437	18.828
2.5425	18.852
2.5413	18.856
2.5400	18.848
2.5388	18.851
2.5375	18.872
2.5363	18.884
2.5350	18.874
2.5338	18.865
2.5326	18.883
2.5313	18.902
2.5301	18.923
2.5289	18.946
2.5276	18.950
2.5264	18.949
2.5252	18.961
2.5239	19.001
2.5227	19.023
2.5215	19.007
2.5202	19.003
2.5190	19.024
2.5178	19.021
2.5166	19.047
2.5154	19.064
2.5141	19.071
2.5129	19.069
2.5117	19.123
2.5105	19.146
2.5093	19.135
2.5081	19.123
2.5068	19.117
2.5056	19.132
2.5044	19.162
2.5032	19.180
2.5020	19.182
2.5008	19.196
2.4996	19.205
2.4984	19.200
2.4972	19.193
2.4960	19.217
2.4948	19.210
2.4936	19.191
2.4924	19.204
2.4912	19.206
2.4900	19.222
2.4888	19.231
2.4876	19.231
2.4864	19.231
2.4852	19.239
2.4840	19.254
2.4828	19.291
2.4816	19.292
2.4805	19.273
2.4793	19.292
2.4781	19.328
2.4769	19.326
2.4757	19.351
2.4745	19.385
2.4734	19.381
2.4722	19.357
2.4710	19.337
2.4698	19.364
2.4686	19.356
2.4675	19.364
2.4663	19.397
2.4651	19.396
2.4640	19.368
2.4628	19.353
2.4616	19.375
2.4604	19.405
2.4593	19.404
2.4581	19.406
2.4569	19.450
2.4558	19.483
2.4546	19.492
2.4535	19.486
2.4523	19.488
2.4511	19.488
2.4500	19.500
2.4488	19.506
2.4477	19.497
2.4465	19.455
2.4454	19.438
2.4442	19.463
2.4431	19.483
2.4419	19.493
2.4408	19.492
2.4396	19.483
2.4385	19.489
2.4373	19.494
2.4362	19.482
2.4350	19.464
2.4339	19.460
2.4327	19.483
2.4316	19.471
2.4305	19.412
2.4293	19.391
2.4282	19.380
2.4270	19.366
2.4259	19.372
2.4248	19.371
2.4236	19.361
2.4225	19.341
2.4214	19.330
2.4202	19.361
2.4191	19.337
2.4180	19.304
2.4169	19.268
2.4157	19.263
2.4146	19.266
2.4135	19.241
2.4124	19.216
2.4112	19.220
2.4101	19.174
2.4090	19.135
2.4079	19.123
2.4068	19.107
2.4056	19.079
2.4045	19.033
2.4034	19.005
2.4023	18.982
2.4012	18.955
2.4001	18.919
2.3990	18.875
2.3979	18.815
2.3967	18.793
2.3956	18.796
2.3945	18.752
2.3934	18.650
2.3923	18.588
2.3912	18.543
2.3901	18.488
2.3890	18.463
2.3879	18.396
2.3868	18.317
2.3857	18.249
2.3846	18.173
2.3835	18.076
2.3824	17.975
2.3813	17.873
2.3802	17.787
2.3791	17.681
2.3781	17.526
2.3770	17.384
2.3759	17.226
2.3748	17.048
2.3737	16.869
2.3726	16.699
2.3715	16.517
2.3704	16.297
2.3694	16.072
2.3683	15.835
2.3672	15.587
2.3661	15.343
2.3650	15.115
2.3640	14.878
2.3629	14.617
2.3618	14.426
2.3607	14.248
2.3597	14.038
2.3586	13.820
2.3575	13.674
2.3564	13.560
2.3554	13.408
2.3543	13.297
2.3532	13.210
2.3522	13.149
2.3511	13.120
2.3500	13.093
2.3490	13.061
2.3479	13.078
2.3468	13.145
2.3458	13.162
2.3447	13.203
2.3436	13.261
2.3426	13.321
2.3415	13.384
2.3405	13.470
2.3394	13.583
2.3384	13.685
2.3373	13.799
2.3363	13.912
2.3352	14.045
2.3342	14.176
2.3331	14.261
2.3321	14.361
2.3310	14.487
2.3300	14.649
2.3289	14.769
2.3279	14.839
2.3268	14.950
2.3258	15.071
2.3247	15.184
2.3237	15.299
2.3226	15.387
2.3216	15.483
2.3206	15.588
2.3195	15.705
2.3185	15.791
2.3175	15.842
2.3164	15.919
2.3154	15.983
2.3144	16.059
2.3133	16.150
2.3123	16.225
2.3113	16.305
2.3102	16.384
2.3092	16.455
2.3082	16.534
2.3071	16.621
2.3061	16.671
2.3051	16.729
2.3041	16.808
2.3030	16.878
2.3020	16.944
2.3010	17.064
2.3000	17.131
2.2990	17.192
2.2979	17.254
2.2969	17.318
2.2959	17.388
2.2949	17.445
2.2939	17.521
2.2929	17.577
2.2918	17.617
2.2908	17.655
2.2898	17.688
2.2888	17.755
2.2878	17.810
2.2868	17.864
2.2858	17.895
2.2848	17.948
2.2838	17.999
2.2828	18.010
2.2818	17.994
2.2808	18.014
2.2798	18.021
2.2787	18.048
2.2777	18.069
2.2767	18.042
2.2757	18.048
2.2747	18.044
2.2738	18.024
2.2728	18.013
2.2718	18.007
2.2708	17.956
2.2698	17.903
2.2688	17.851
2.2678	17.793
2.2668	17.727
2.2658	17.677
2.2648	17.622
2.2638	17.581
2.2628	17.514
2.2618	17.458
2.2609	17.416
2.2599	17.384
2.2589	17.334
2.2579	17.275
2.2569	17.242
2.2559	17.240
2.2550	17.204
2.2540	17.213
2.2530	17.285
2.2520	17.304
2.2510	17.354
2.2501	17.441
2.2491	17.540
2.2481	17.662
2.2471	17.778
2.2462	17.861
2.2452	17.981
2.2442	18.134
2.2433	18.242
2.2423	18.319
2.2413	18.419
2.2403	18.551
2.2394	18.636
2.2384	18.651
2.2374	18.739
2.2365	18.818
2.2355	18.863
2.2345	18.892
2.2336	18.940
2.2326	18.968
2.2317	18.982
2.2307	19.007
2.2297	19.023
2.2288	19.058
2.2278	19.096
2.2269	19.101
2.2259	19.110
2.2250	19.121
2.2240	19.187
2.2231	19.184
2.2221	19.195
2.2211	19.250
2.2202	19.266
2.2192	19.273
2.2183	19.315
2.2173	19.316
2.2164	19.304
2.2155	19.313
2.2145	19.324
2.2136	19.312
2.2126	19.340
2.2117	19.363
2.2107	19.384
2.2098	19.406
2.2088	19.389
2.2079	19.381
2.2070	19.386
2.2060	19.406
2.2051	19.397
2.2041	19.375
2.2032	19.400
2.2023	19.423
2.2013	19.402
2.2004	19.411
2.1995	19.415
2.1985	19.422
2.1976	19.441
2.1967	19.451
2.1957	19.479
2.1948	19.480
2.1939	19.499
2.1930	19.515
2.1920	19.512
2.1911	19.513
2.1902	19.498
2.1893	19.508
2.1883	19.533
2.1874	19.542
2.1865	19.520
2.1856	19.525
2.1846	19.539
2.1837	19.528
2.1828	19.553
2.1819	19.553
2.1810	19.514
2.1800	19.507
2.1791	19.541
2.1782	19.551
2.1773	19.526
2.1764	19.552
2.1755	19.551
2.1746	19.571
2.1736	19.595
2.1727	19.607
2.1718	19.644
2.1709	19.601
2.1700	19.572
2.1691	19.613
2.1682	19.662
2.1673	19.661
2.1664	19.654
2.1655	19.659
2.1646	19.679
2.1637	19.681
2.1628	19.651
2.1619	19.654
2.1610	19.703
2.1601	19.678
2.1592	19.638
2.1583	19.710
2.1574	19.729
2.1565	19.670
2.1556	19.630
2.1547	19.619
2.1538	19.624
2.1529	19.625
2.1520	19.665
2.1511	19.658
2.1502	19.630
2.1493	19.614
2.1484	19.589
2.1475	19.599
2.1466	19.577
2.1458	19.597
2.1449	19.676
2.1440	19.658
2.1431	19.626
2.1422	19.635
2.1413	19.656
2.1404	19.661
2.1396	19.634
2.1387	19.633
2.1378	19.632
2.1369	19.630
2.1360	19.641
2.1352	19.646
2.1343	19.654
2.1334	19.651
2.1325	19.636
2.1316	19.588
2.1308	19.606
2.1299	19.663
2.1290	19.685
2.1281	19.667
2.1273	19.689
2.1264	19.686
2.1255	19.667
2.1247	19.692
2.1238	19.712
2.1229	19.714
2.1220	19.702
2.1212	19.687
2.1203	19.688
2.1194	19.714
2.1186	19.720
2.1177	19.652
2.1168	19.644
2.1160	19.653
2.1151	19.651
2.1143	19.660
2.1134	19.687
2.1125	19.693
2.1117	19.679
2.1108	19.661
2.1100	19.668
2.1091	19.657
2.1082	19.638
2.1074	19.630
2.1065	19.653
2.1057	19.654
2.1048	19.658
2.1040	19.648
2.1031	19.669
2.1023	19.663
2.1014	19.656
2.1005	19.656
2.0997	19.682
2.0988	19.687
2.0980	19.708
2.0971	19.708
2.0963	19.709
2.0955	19.723
2.0946	19.771
2.0938	19.803
2.0929	19.781
2.0921	19.753
2.0912	19.781
2.0904	19.807
2.0895	19.806
2.0887	19.761
2.0879	19.733
2.0870	19.756
2.0862	19.766
2.0853	19.762
2.0845	19.746
2.0837	19.735
2.0828	19.749
2.0820	19.752
2.0812	19.725
2.0803	19.677
2.0795	19.700

