Name: 12030.135
Type: Soil
Class: Lunar
Subclass: Maria
Particle Size: Fine
Sample No.: 12030.135
Owner: JHU
Wavelength range: IR
Origin: Apollo 12 landing site via the NASA Lunar Sample Repository at Johnson 
Space Center, Houston, TX.
Description:  This sample is one of a suite of soils of similar chemistry, but 
different exposure ages, from the Apollo 12 mare site.  This sample has the 
lowest exposure age of the three soils of that suite (Is/FeO=14).



Measurement:  Directional (10 degree) hemispherical reflectance
First Column:  X
Second Column:  Y
X Units:  Wavelength (micrometers)
Y Units:  Reflectance (percent)
First X Value:  14.011
Last X Value:  2.079
Number of X Values:  2124
Additional information:  None

14.011	1.2485
13.973	1.2275
13.936	1.1594
13.899	1.2155
13.861	1.2775
13.824	1.2918
13.788	1.2535
13.751	1.2399
13.715	1.2305
13.679	1.2198
13.643	1.2831
13.607	1.3262
13.571	1.3498
13.536	1.3539
13.500	1.3830
13.465	1.3682
13.430	1.3933
13.396	1.4123
13.361	1.4602
13.327	1.4233
13.293	1.4308
13.259	1.4538
13.225	1.5121
13.191	1.5330
13.158	1.5601
13.124	1.5544
13.091	1.5547
13.058	1.6048
13.026	1.6206
12.993	1.6206
12.960	1.7082
12.928	1.7287
12.896	1.7438
12.864	1.7658
12.832	1.7849
12.800	1.8056
12.769	1.8662
12.737	1.9274
12.706	1.9760
12.675	2.0237
12.644	2.0474
12.614	2.0797
12.583	2.1395
12.552	2.2019
12.522	2.2479
12.492	2.2751
12.462	2.3159
12.432	2.3743
12.402	2.4403
12.373	2.4837
12.343	2.5242
12.314	2.5746
12.285	2.6178
12.256	2.6271
12.227	2.6410
12.198	2.6372
12.169	2.6427
12.141	2.6144
12.113	2.5929
12.084	2.5876
12.056	2.5880
12.028	2.5585
12.000	2.5157
11.973	2.4876
11.945	2.5139
11.918	2.4880
11.890	2.4602
11.863	2.4636
11.836	2.5043
11.809	2.5208
11.782	2.5106
11.755	2.5118
11.729	2.4987
11.702	2.4803
11.676	2.5155
11.650	2.5299
11.624	2.5285
11.598	2.5422
11.572	2.5428
11.546	2.5563
11.520	2.5939
11.495	2.5878
11.469	2.5898
11.444	2.6158
11.419	2.6442
11.394	2.6300
11.369	2.5983
11.344	2.5620
11.319	2.5753
11.294	2.5512
11.270	2.5200
11.245	2.4973
11.221	2.5164
11.197	2.4850
11.173	2.4229
11.149	2.3980
11.125	2.3983
11.101	2.3649
11.077	2.3331
11.054	2.3200
11.030	2.3031
11.007	2.2941
10.983	2.3098
10.960	2.3122
10.937	2.3228
10.914	2.3274
10.891	2.3440
10.868	2.3667
10.846	2.3826
10.823	2.3774
10.800	2.3826
10.778	2.3811
10.755	2.3551
10.733	2.3283
10.711	2.3419
10.689	2.3359
10.667	2.3253
10.645	2.3105
10.623	2.2688
10.602	2.2365
10.580	2.2302
10.558	2.2046
10.537	2.1956
10.516	2.1904
10.494	2.1697
10.473	2.1451
10.452	2.1428
10.431	2.1291
10.410	2.1251
10.389	2.1216
10.368	2.0977
10.348	2.0680
10.327	2.0474
10.306	2.0072
10.286	1.9868
10.266	1.9842
10.245	1.9775
10.225	1.9532
10.205	1.9354
10.185	1.9171
10.165	1.9188
10.145	1.9382
10.125	1.9549
10.106	1.9489
10.086	1.9443
10.066	1.9331
10.047	1.9359
10.027	1.9411
10.008	1.9292
9.9887	1.9009
9.9695	1.9062
9.9504	1.9252
9.9313	1.9352
9.9123	1.9226
9.8934	1.9224
9.8746	1.9283
9.8558	1.9297
9.8371	1.9226
9.8185	1.9213
9.7999	1.9340
9.7814	1.9426
9.7630	1.9439
9.7447	1.9698
9.7264	1.9511
9.7082	1.9417
9.6900	1.9404
9.6719	1.9316
9.6539	1.8977
9.6360	1.9115
9.6181	1.9289
9.6003	1.9088
9.5825	1.9092
9.5649	1.9250
9.5472	1.9293
9.5297	1.9482
9.5122	1.9531
9.4948	1.9393
9.4774	1.9308
9.4601	1.9436
9.4429	1.9538
9.4257	1.9406
9.4086	1.9280
9.3916	1.9331
9.3746	1.9417
9.3577	1.9660
9.3408	1.9713
9.3240	1.9707
9.3073	1.9662
9.2906	1.9669
9.2740	1.9702
9.2574	2.0129
9.2409	2.0115
9.2245	1.9985
9.2081	2.0317
9.1918	2.0448
9.1755	2.0287
9.1593	2.0377
9.1431	2.0253
9.1270	2.0328
9.1110	2.0149
9.0950	1.9500
9.0791	1.9172
9.0632	1.9491
9.0474	1.9481
9.0316	1.9096
9.0159	1.8699
9.0003	1.8353
8.9847	1.7895
8.9691	1.7384
8.9536	1.6856
8.9382	1.6453
8.9228	1.6222
8.9075	1.5591
8.8922	1.5101
8.8770	1.4826
8.8618	1.4370
8.8467	1.3977
8.8316	1.3868
8.8166	1.3604
8.8016	1.3173
8.7867	1.3041
8.7718	1.2792
8.7570	1.2622
8.7422	1.2497
8.7275	1.2641
8.7129	1.2598
8.6982	1.2309
8.6837	1.2149
8.6692	1.2170
8.6547	1.2138
8.6403	1.2124
8.6259	1.2029
8.6116	1.2104
8.5973	1.1958
8.5830	1.1447
8.5688	1.1539
8.5547	1.1665
8.5406	1.1617
8.5266	1.1776
8.5126	1.1585
8.4986	1.1536
8.4847	1.1624
8.4708	1.1727
8.4570	1.1610
8.4432	1.1531
8.4295	1.1472
8.4158	1.1173
8.4022	1.1245
8.3886	1.1456
8.3750	1.1449
8.3615	1.1573
8.3481	1.1619
8.3347	1.1796
8.3213	1.2168
8.3079	1.2274
8.2946	1.2507
8.2814	1.2946
8.2682	1.2831
8.2550	1.2989
8.2419	1.3362
8.2288	1.3642
8.2158	1.4011
8.2028	1.4509
8.1898	1.4737
8.1769	1.4944
8.1640	1.5253
8.1512	1.5712
8.1384	1.6244
8.1256	1.6653
8.1129	1.7040
8.1002	1.7657
8.0876	1.8186
8.0750	1.8699
8.0624	1.9363
8.0499	2.0124
8.0374	2.0619
8.0250	2.1463
8.0126	2.2418
8.0002	2.3214
7.9879	2.4014
7.9756	2.5018
7.9634	2.6045
7.9512	2.6916
7.9390	2.7715
7.9268	2.8781
7.9147	2.9844
7.9027	3.0793
7.8906	3.1829
7.8786	3.2949
7.8667	3.3826
7.8548	3.4797
7.8429	3.5770
7.8310	3.6639
7.8192	3.7600
7.8075	3.8498
7.7957	3.9467
7.7840	4.0511
7.7723	4.1548
7.7607	4.2515
7.7491	4.3168
7.7375	4.3967
7.7260	4.5107
7.7145	4.6256
7.7031	4.7267
7.6916	4.8273
7.6802	4.9044
7.6689	5.0005
7.6575	5.0986
7.6462	5.1675
7.6350	5.2468
7.6238	5.3387
7.6126	5.4311
7.6014	5.5222
7.5903	5.6184
7.5792	5.6937
7.5681	5.7663
7.5571	5.8713
7.5461	5.9500
7.5351	6.0408
7.5242	6.1366
7.5133	6.2276
7.5024	6.2998
7.4916	6.3805
7.4807	6.4825
7.4700	6.5774
7.4592	6.6560
7.4485	6.7508
7.4378	6.8201
7.4272	6.9079
7.4165	7.0024
7.4059	7.0878
7.3954	7.1595
7.3848	7.2498
7.3743	7.3405
7.3639	7.4121
7.3534	7.4877
7.3430	7.5837
7.3326	7.6614
7.3223	7.7304
7.3119	7.8042
7.3016	7.8829
7.2914	7.9608
7.2811	8.0312
7.2709	8.1075
7.2607	8.1757
7.2506	8.2429
7.2404	8.3144
7.2303	8.3751
7.2203	8.4459
7.2102	8.5057
7.2002	8.5676
7.1902	8.6250
7.1803	8.6862
7.1703	8.7688
7.1604	8.8563
7.1506	8.9037
7.1407	8.9396
7.1309	8.9788
7.1211	9.0411
7.1113	9.1126
7.1016	9.1739
7.0919	9.2313
7.0822	9.3001
7.0725	9.3554
7.0629	9.3998
7.0533	9.4778
7.0437	9.5749
7.0341	9.5925
7.0246	9.6267
7.0151	9.6845
7.0056	9.7368
6.9962	9.8103
6.9867	9.8808
6.9773	9.9257
6.9679	9.9827
6.9586	10.024
6.9493	10.038
6.9400	10.090
6.9307	10.148
6.9214	10.196
6.9122	10.254
6.9030	10.315
6.8938	10.373
6.8847	10.412
6.8755	10.484
6.8664	10.567
6.8573	10.562
6.8483	10.563
6.8393	10.604
6.8302	10.649
6.8213	10.664
6.8123	10.695
6.8034	10.747
6.7944	10.790
6.7855	10.814
6.7767	10.812
6.7678	10.821
6.7590	10.835
6.7502	10.870
6.7414	10.865
6.7327	10.857
6.7239	10.885
6.7152	10.905
6.7065	10.896
6.6979	10.889
6.6892	10.901
6.6806	10.931
6.6720	10.930
6.6634	10.925
6.6549	10.926
6.6464	10.957
6.6378	10.996
6.6294	10.969
6.6209	10.945
6.6124	10.959
6.6040	10.967
6.5956	10.987
6.5872	11.007
6.5789	11.024
6.5705	11.043
6.5622	11.054
6.5539	11.082
6.5456	11.078
6.5374	11.095
6.5292	11.130
6.5209	11.155
6.5128	11.171
6.5046	11.197
6.4964	11.266
6.4883	11.285
6.4802	11.283
6.4721	11.287
6.4640	11.306
6.4560	11.340
6.4480	11.357
6.4399	11.355
6.4320	11.382
6.4240	11.425
6.4160	11.476
6.4081	11.478
6.4002	11.426
6.3923	11.395
6.3844	11.407
6.3766	11.433
6.3687	11.424
6.3609	11.393
6.3531	11.394
6.3454	11.417
6.3376	11.408
6.3299	11.381
6.3221	11.371
6.3144	11.361
6.3068	11.364
6.2991	11.383
6.2914	11.392
6.2838	11.389
6.2762	11.390
6.2686	11.387
6.2611	11.366
6.2535	11.359
6.2460	11.364
6.2385	11.372
6.2310	11.403
6.2235	11.415
6.2160	11.417
6.2086	11.421
6.2011	11.450
6.1937	11.492
6.1863	11.543
6.1790	11.543
6.1716	11.535
6.1643	11.569
6.1570	11.625
6.1496	11.657
6.1424	11.677
6.1351	11.698
6.1278	11.741
6.1206	11.801
6.1134	11.854
6.1062	11.848
6.0990	11.858
6.0918	11.894
6.0847	11.929
6.0776	11.964
6.0704	12.001
6.0633	12.010
6.0563	12.068
6.0492	12.138
6.0421	12.118
6.0351	12.110
6.0281	12.121
6.0211	12.157
6.0141	12.229
6.0071	12.272
6.0002	12.309
5.9932	12.355
5.9863	12.420
5.9794	12.479
5.9725	12.539
5.9657	12.589
5.9588	12.642
5.9520	12.727
5.9451	12.839
5.9383	12.941
5.9315	12.992
5.9247	13.017
5.9180	13.076
5.9112	13.156
5.9045	13.257
5.8978	13.364
5.8911	13.428
5.8844	13.511
5.8777	13.577
5.8711	13.596
5.8644	13.658
5.8578	13.715
5.8512	13.759
5.8446	13.784
5.8380	13.850
5.8314	13.934
5.8249	14.024
5.8184	14.063
5.8118	14.062
5.8053	14.093
5.7988	14.151
5.7923	14.222
5.7859	14.270
5.7794	14.311
5.7730	14.386
5.7666	14.454
5.7602	14.466
5.7538	14.462
5.7474	14.506
5.7410	14.555
5.7347	14.590
5.7283	14.606
5.7220	14.625
5.7157	14.677
5.7094	14.717
5.7031	14.695
5.6969	14.689
5.6906	14.725
5.6844	14.734
5.6782	14.754
5.6719	14.775
5.6657	14.775
5.6596	14.799
5.6534	14.839
5.6472	14.878
5.6411	14.929
5.6349	14.945
5.6288	14.962
5.6227	15.014
5.6166	15.075
5.6106	15.111
5.6045	15.146
5.5984	15.196
5.5924	15.222
5.5864	15.279
5.5804	15.367
5.5744	15.416
5.5684	15.428
5.5624	15.442
5.5564	15.476
5.5505	15.531
5.5445	15.544
5.5386	15.563
5.5327	15.583
5.5268	15.583
5.5209	15.587
5.5151	15.605
5.5092	15.618
5.5033	15.616
5.4975	15.608
5.4917	15.619
5.4859	15.635
5.4801	15.633
5.4743	15.608
5.4685	15.599
5.4628	15.588
5.4570	15.576
5.4513	15.568
5.4455	15.558
5.4398	15.555
5.4341	15.558
5.4284	15.564
5.4228	15.569
5.4171	15.540
5.4114	15.528
5.4058	15.521
5.4002	15.499
5.3945	15.479
5.3889	15.452
5.3833	15.432
5.3778	15.430
5.3722	15.400
5.3666	15.361
5.3611	15.355
5.3555	15.342
5.3500	15.313
5.3445	15.296
5.3390	15.307
5.3335	15.295
5.3280	15.268
5.3225	15.268
5.3171	15.280
5.3116	15.292
5.3062	15.318
5.3008	15.341
5.2954	15.349
5.2900	15.378
5.2846	15.399
5.2792	15.421
5.2738	15.468
5.2684	15.498
5.2631	15.542
5.2578	15.594
5.2524	15.634
5.2471	15.680
5.2418	15.731
5.2365	15.789
5.2312	15.846
5.2260	15.900
5.2207	15.942
5.2154	15.994
5.2102	16.051
5.2050	16.101
5.1998	16.146
5.1945	16.183
5.1893	16.230
5.1842	16.282
5.1790	16.330
5.1738	16.378
5.1686	16.402
5.1635	16.447
5.1584	16.511
5.1532	16.567
5.1481	16.623
5.1430	16.673
5.1379	16.713
5.1328	16.770
5.1277	16.826
5.1227	16.880
5.1176	16.919
5.1126	16.968
5.1075	17.018
5.1025	17.071
5.0975	17.120
5.0925	17.154
5.0875	17.186
5.0825	17.236
5.0775	17.274
5.0726	17.330
5.0676	17.371
5.0627	17.430
5.0577	17.495
5.0528	17.545
5.0479	17.587
5.0430	17.651
5.0380	17.699
5.0332	17.727
5.0283	17.785
5.0234	17.851
5.0185	17.911
5.0137	17.980
5.0088	18.043
5.0040	18.101
4.9992	18.162
4.9944	18.229
4.9896	18.284
4.9848	18.345
4.9800	18.405
4.9752	18.472
4.9704	18.534
4.9657	18.609
4.9609	18.694
4.9562	18.767
4.9514	18.820
4.9467	18.881
4.9420	18.971
4.9373	19.043
4.9326	19.116
4.9279	19.188
4.9232	19.264
4.9186	19.343
4.9139	19.410
4.9092	19.487
4.9046	19.558
4.9000	19.620
4.8953	19.681
4.8907	19.744
4.8861	19.812
4.8815	19.886
4.8769	19.952
4.8723	20.009
4.8678	20.067
4.8632	20.146
4.8586	20.219
4.8541	20.293
4.8495	20.361
4.8450	20.404
4.8405	20.455
4.8360	20.513
4.8315	20.572
4.8270	20.645
4.8225	20.716
4.8180	20.764
4.8135	20.815
4.8090	20.887
4.8046	20.958
4.8001	21.006
4.7957	21.056
4.7913	21.112
4.7868	21.162
4.7824	21.212
4.7780	21.255
4.7736	21.307
4.7692	21.370
4.7648	21.426
4.7605	21.474
4.7561	21.534
4.7517	21.591
4.7474	21.636
4.7431	21.686
4.7387	21.755
4.7344	21.824
4.7301	21.885
4.7258	21.932
4.7215	21.998
4.7172	22.073
4.7129	22.129
4.7086	22.190
4.7043	22.250
4.7000	22.291
4.6958	22.339
4.6915	22.421
4.6873	22.479
4.6831	22.520
4.6788	22.580
4.6746	22.631
4.6704	22.676
4.6662	22.729
4.6620	22.781
4.6578	22.827
4.6536	22.881
4.6495	22.951
4.6453	23.008
4.6411	23.030
4.6370	23.082
4.6328	23.151
4.6287	23.191
4.6246	23.230
4.6205	23.278
4.6163	23.341
4.6122	23.399
4.6081	23.424
4.6040	23.459
4.6000	23.507
4.5959	23.543
4.5918	23.572
4.5877	23.611
4.5837	23.663
4.5796	23.693
4.5756	23.713
4.5716	23.753
4.5675	23.796
4.5635	23.832
4.5595	23.844
4.5555	23.860
4.5515	23.898
4.5475	23.942
4.5435	23.967
4.5395	23.985
4.5356	24.014
4.5316	24.055
4.5276	24.084
4.5237	24.094
4.5197	24.117
4.5158	24.143
4.5119	24.153
4.5080	24.178
4.5040	24.210
4.5001	24.212
4.4962	24.203
4.4923	24.235
4.4884	24.268
4.4846	24.274
4.4807	24.291
4.4768	24.320
4.4730	24.346
4.4691	24.340
4.4652	24.337
4.4614	24.345
4.4576	24.365
4.4537	24.391
4.4499	24.411
4.4461	24.415
4.4423	24.420
4.4385	24.439
4.4347	24.441
4.4309	24.447
4.4271	24.476
4.4233	24.483
4.4196	24.479
4.4158	24.494
4.4120	24.511
4.4083	24.527
4.4045	24.535
4.4008	24.544
4.3971	24.557
4.3934	24.557
4.3896	24.566
4.3859	24.590
4.3822	24.584
4.3785	24.597
4.3748	24.606
4.3711	24.624
4.3674	24.655
4.3638	24.681
4.3601	24.707
4.3564	24.714
4.3528	24.710
4.3491	24.721
4.3455	24.735
4.3418	24.742
4.3382	24.749
4.3346	24.755
4.3310	24.773
4.3273	24.799
4.3237	24.816
4.3201	24.824
4.3165	24.823
4.3129	24.822
4.3094	24.842
4.3058	24.863
4.3022	24.869
4.2986	24.869
4.2951	24.882
4.2915	24.896
4.2880	24.898
4.2844	24.897
4.2809	24.895
4.2774	24.916
4.2738	24.932
4.2703	24.940
4.2668	24.960
4.2633	24.986
4.2598	24.996
4.2563	24.993
4.2528	24.993
4.2493	25.000
4.2458	25.008
4.2424	25.013
4.2389	25.012
4.2354	25.009
4.2320	25.004
4.2285	25.015
4.2251	25.045
4.2216	25.058
4.2182	25.049
4.2148	25.066
4.2113	25.099
4.2079	25.106
4.2045	25.091
4.2011	25.103
4.1977	25.133
4.1943	25.156
4.1909	25.169
4.1875	25.161
4.1841	25.158
4.1808	25.162
4.1774	25.168
4.1740	25.171
4.1707	25.159
4.1673	25.157
4.1640	25.158
4.1606	25.169
4.1573	25.191
4.1540	25.196
4.1506	25.206
4.1473	25.210
4.1440	25.223
4.1407	25.228
4.1374	25.214
4.1341	25.210
4.1308	25.218
4.1275	25.226
4.1242	25.222
4.1209	25.230
4.1177	25.236
4.1144	25.233
4.1111	25.239
4.1079	25.252
4.1046	25.259
4.1014	25.254
4.0981	25.249
4.0949	25.260
4.0917	25.278
4.0884	25.274
4.0852	25.262
4.0820	25.270
4.0788	25.285
4.0756	25.285
4.0724	25.297
4.0692	25.292
4.0660	25.281
4.0628	25.287
4.0596	25.299
4.0565	25.309
4.0533	25.317
4.0501	25.313
4.0470	25.316
4.0438	25.328
4.0406	25.325
4.0375	25.302
4.0344	25.292
4.0312	25.311
4.0281	25.325
4.0250	25.334
4.0218	25.325
4.0187	25.323
4.0156	25.325
4.0125	25.326
4.0094	25.353
4.0063	25.369
4.0032	25.356
4.0001	25.347
3.9970	25.361
3.9940	25.365
3.9909	25.367
3.9878	25.385
3.9847	25.383
3.9817	25.377
3.9786	25.366
3.9756	25.377
3.9725	25.397
3.9695	25.395
3.9665	25.382
3.9634	25.382
3.9604	25.369
3.9574	25.355
3.9544	25.380
3.9513	25.408
3.9483	25.405
3.9453	25.377
3.9423	25.382
3.9393	25.394
3.9363	25.412
3.9333	25.426
3.9304	25.412
3.9274	25.394
3.9244	25.385
3.9214	25.378
3.9185	25.376
3.9155	25.374
3.9126	25.376
3.9096	25.358
3.9067	25.357
3.9037	25.365
3.9008	25.373
3.8979	25.384
3.8949	25.381
3.8920	25.375
3.8891	25.375
3.8862	25.380
3.8833	25.374
3.8804	25.371
3.8775	25.386
3.8746	25.389
3.8717	25.372
3.8688	25.367
3.8659	25.380
3.8630	25.392
3.8601	25.387
3.8573	25.378
3.8544	25.373
3.8515	25.370
3.8487	25.353
3.8458	25.345
3.8430	25.343
3.8401	25.370
3.8373	25.390
3.8344	25.363
3.8316	25.335
3.8288	25.341
3.8259	25.355
3.8231	25.347
3.8203	25.348
3.8175	25.356
3.8147	25.367
3.8119	25.358
3.8091	25.345
3.8063	25.336
3.8035	25.339
3.8007	25.335
3.7979	25.319
3.7951	25.315
3.7924	25.326
3.7896	25.349
3.7868	25.346
3.7841	25.337
3.7813	25.332
3.7785	25.329
3.7758	25.314
3.7730	25.308
3.7703	25.319
3.7676	25.326
3.7648	25.333
3.7621	25.321
3.7594	25.313
3.7566	25.306
3.7539	25.297
3.7512	25.294
3.7485	25.295
3.7458	25.293
3.7431	25.280
3.7404	25.275
3.7377	25.297
3.7350	25.293
3.7323	25.298
3.7296	25.278
3.7269	25.270
3.7242	25.279
3.7216	25.271
3.7189	25.259
3.7162	25.265
3.7136	25.279
3.7109	25.266
3.7083	25.232
3.7056	25.232
3.7030	25.257
3.7003	25.259
3.6977	25.254
3.6950	25.244
3.6924	25.219
3.6898	25.220
3.6872	25.232
3.6845	25.218
3.6819	25.215
3.6793	25.214
3.6767	25.222
3.6741	25.240
3.6715	25.250
3.6689	25.240
3.6663	25.212
3.6637	25.210
3.6611	25.203
3.6585	25.193
3.6560	25.200
3.6534	25.196
3.6508	25.164
3.6482	25.158
3.6457	25.177
3.6431	25.168
3.6406	25.169
3.6380	25.166
3.6355	25.159
3.6329	25.163
3.6304	25.168
3.6278	25.156
3.6253	25.139
3.6227	25.143
3.6202	25.154
3.6177	25.151
3.6152	25.156
3.6127	25.151
3.6101	25.135
3.6076	25.104
3.6051	25.096
3.6026	25.117
3.6001	25.126
3.5976	25.094
3.5951	25.081
3.5926	25.099
3.5901	25.098
3.5876	25.092
3.5852	25.085
3.5827	25.087
3.5802	25.094
3.5777	25.095
3.5753	25.089
3.5728	25.057
3.5704	25.039
3.5679	25.046
3.5654	25.044
3.5630	25.057
3.5605	25.067
3.5581	25.064
3.5557	25.058
3.5532	25.055
3.5508	25.039
3.5484	25.024
3.5459	25.032
3.5435	25.029
3.5411	25.025
3.5387	25.030
3.5363	25.009
3.5338	25.004
3.5314	25.012
3.5290	25.015
3.5266	25.016
3.5242	25.019
3.5218	25.006
3.5195	24.981
3.5171	24.990
3.5147	25.038
3.5123	25.026
3.5099	25.011
3.5075	25.014
3.5052	25.018
3.5028	25.008
3.5004	24.987
3.4981	24.984
3.4957	24.998
3.4934	25.002
3.4910	25.001
3.4887	24.980
3.4863	24.970
3.4840	24.982
3.4816	24.981
3.4793	24.952
3.4770	24.923
3.4746	24.916
3.4723	24.931
3.4700	24.937
3.4677	24.920
3.4653	24.907
3.4630	24.902
3.4607	24.897
3.4584	24.905
3.4561	24.913
3.4538	24.899
3.4515	24.904
3.4492	24.907
3.4469	24.910
3.4446	24.892
3.4423	24.876
3.4400	24.874
3.4378	24.921
3.4355	24.946
3.4332	24.917
3.4309	24.898
3.4287	24.886
3.4264	24.892
3.4241	24.904
3.4219	24.912
3.4196	24.885
3.4174	24.883
3.4151	24.874
3.4129	24.819
3.4106	24.816
3.4084	24.841
3.4061	24.836
3.4039	24.825
3.4017	24.810
3.3994	24.804
3.3972	24.794
3.3950	24.822
3.3928	24.821
3.3906	24.781
3.3883	24.793
3.3861	24.787
3.3839	24.757
3.3817	24.749
3.3795	24.735
3.3773	24.718
3.3751	24.745
3.3729	24.753
3.3707	24.708
3.3685	24.676
3.3663	24.673
3.3641	24.674
3.3620	24.646
3.3598	24.643
3.3576	24.648
3.3554	24.611
3.3533	24.605
3.3511	24.607
3.3489	24.623
3.3468	24.615
3.3446	24.602
3.3425	24.605
3.3403	24.596
3.3382	24.576
3.3360	24.565
3.3339	24.553
3.3317	24.530
3.3296	24.529
3.3274	24.537
3.3253	24.537
3.3232	24.532
3.3210	24.521
3.3189	24.517
3.3168	24.508
3.3147	24.495
3.3126	24.497
3.3104	24.496
3.3083	24.501
3.3062	24.491
3.3041	24.469
3.3020	24.464
3.2999	24.461
3.2978	24.435
3.2957	24.442
3.2936	24.445
3.2915	24.457
3.2894	24.471
3.2874	24.446
3.2853	24.398
3.2832	24.402
3.2811	24.411
3.2790	24.399
3.2770	24.417
3.2749	24.416
3.2728	24.402
3.2708	24.380
3.2687	24.380
3.2666	24.357
3.2646	24.326
3.2625	24.338
3.2605	24.339
3.2584	24.323
3.2564	24.323
3.2543	24.327
3.2523	24.324
3.2503	24.322
3.2482	24.328
3.2462	24.314
3.2442	24.291
3.2421	24.282
3.2401	24.283
3.2381	24.280
3.2361	24.269
3.2340	24.253
3.2320	24.237
3.2300	24.228
3.2280	24.213
3.2260	24.198
3.2240	24.196
3.2220	24.204
3.2200	24.193
3.2180	24.191
3.2160	24.200
3.2140	24.219
3.2120	24.203
3.2100	24.184
3.2080	24.160
3.2060	24.162
3.2040	24.157
3.2021	24.139
3.2001	24.123
3.1981	24.095
3.1961	24.074
3.1942	24.066
3.1922	24.073
3.1902	24.074
3.1883	24.067
3.1863	24.078
3.1844	24.072
3.1824	24.071
3.1805	24.061
3.1785	24.025
3.1766	24.008
3.1746	24.032
3.1727	24.022
3.1707	24.021
3.1688	24.026
3.1669	23.998
3.1649	23.972
3.1630	23.963
3.1611	23.956
3.1591	23.961
3.1572	23.990
3.1553	23.966
3.1534	23.944
3.1515	23.944
3.1495	23.972
3.1476	23.943
3.1457	23.926
3.1438	23.916
3.1419	23.912
3.1400	23.909
3.1381	23.888
3.1362	23.897
3.1343	23.926
3.1324	23.920
3.1305	23.880
3.1286	23.892
3.1268	23.875
3.1249	23.847
3.1230	23.838
3.1211	23.843
3.1192	23.813
3.1174	23.824
3.1155	23.836
3.1136	23.808
3.1117	23.815
3.1099	23.833
3.1080	23.799
3.1061	23.772
3.1043	23.791
3.1024	23.821
3.1006	23.809
3.0987	23.785
3.0969	23.775
3.0950	23.764
3.0932	23.757
3.0913	23.756
3.0895	23.754
3.0876	23.761
3.0858	23.757
3.0840	23.739
3.0821	23.745
3.0803	23.757
3.0785	23.737
3.0766	23.717
3.0748	23.696
3.0730	23.702
3.0712	23.705
3.0694	23.691
3.0675	23.695
3.0657	23.687
3.0639	23.695
3.0621	23.711
3.0603	23.686
3.0585	23.657
3.0567	23.641
3.0549	23.632
3.0531	23.668
3.0513	23.679
3.0495	23.660
3.0477	23.649
3.0459	23.623
3.0441	23.634
3.0423	23.644
3.0406	23.631
3.0388	23.626
3.0370	23.631
3.0352	23.625
3.0334	23.601
3.0317	23.582
3.0299	23.574
3.0281	23.537
3.0264	23.551
3.0246	23.607
3.0228	23.590
3.0211	23.548
3.0193	23.563
3.0176	23.564
3.0158	23.539
3.0140	23.506
3.0123	23.518
3.0105	23.500
3.0088	23.451
3.0070	23.444
3.0053	23.443
3.0036	23.453
3.0018	23.447
3.0001	23.483
2.9984	23.493
2.9966	23.453
2.9949	23.418
2.9932	23.389
2.9914	23.420
2.9897	23.399
2.9880	23.349
2.9863	23.362
2.9845	23.359
2.9828	23.369
2.9811	23.397
2.9794	23.384
2.9777	23.342
2.9760	23.328
2.9743	23.360
2.9726	23.411
2.9709	23.383
2.9692	23.292
2.9675	23.270
2.9658	23.316
2.9641	23.365
2.9624	23.327
2.9607	23.281
2.9590	23.269
2.9573	23.284
2.9556	23.268
2.9539	23.279
2.9523	23.275
2.9506	23.264
2.9489	23.268
2.9472	23.264
2.9455	23.261
2.9439	23.253
2.9422	23.244
2.9405	23.217
2.9389	23.205
2.9372	23.230
2.9355	23.227
2.9339	23.212
2.9322	23.224
2.9306	23.220
2.9289	23.218
2.9272	23.204
2.9256	23.202
2.9239	23.190
2.9223	23.179
2.9207	23.200
2.9190	23.185
2.9174	23.185
2.9157	23.184
2.9141	23.181
2.9124	23.176
2.9108	23.149
2.9092	23.145
2.9075	23.149
2.9059	23.168
2.9043	23.173
2.9027	23.152
2.9010	23.137
2.8994	23.142
2.8978	23.158
2.8962	23.115
2.8946	23.086
2.8929	23.117
2.8913	23.145
2.8897	23.131
2.8881	23.115
2.8865	23.105
2.8849	23.123
2.8833	23.144
2.8817	23.112
2.8801	23.074
2.8785	23.062
2.8769	23.062
2.8753	23.059
2.8737	23.058
2.8721	23.089
2.8705	23.112
2.8689	23.078
2.8673	23.073
2.8658	23.092
2.8642	23.094
2.8626	23.108
2.8610	23.089
2.8594	23.033
2.8579	23.017
2.8563	23.039
2.8547	23.083
2.8531	23.106
2.8516	23.053
2.8500	23.024
2.8484	23.052
2.8469	23.053
2.8453	23.048
2.8437	23.042
2.8422	23.028
2.8406	23.028
2.8391	23.041
2.8375	23.025
2.8360	23.012
2.8344	23.055
2.8329	23.068
2.8313	23.055
2.8298	23.050
2.8282	23.060
2.8267	23.049
2.8252	23.035
2.8236	23.053
2.8221	23.048
2.8205	23.036
2.8190	23.068
2.8175	23.094
2.8159	23.078
2.8144	23.068
2.8129	23.089
2.8114	23.114
2.8098	23.098
2.8083	23.069
2.8068	23.084
2.8053	23.110
2.8038	23.113
2.8022	23.109
2.8007	23.132
2.7992	23.162
2.7977	23.171
2.7962	23.159
2.7947	23.192
2.7932	23.179
2.7917	23.171
2.7902	23.175
2.7887	23.199
2.7872	23.234
2.7857	23.234
2.7842	23.234
2.7827	23.254
2.7812	23.268
2.7797	23.285
2.7782	23.296
2.7767	23.331
2.7752	23.374
2.7738	23.364
2.7723	23.342
2.7708	23.345
2.7693	23.373
2.7678	23.415
2.7664	23.435
2.7649	23.495
2.7634	23.527
2.7619	23.516
2.7605	23.517
2.7590	23.532
2.7575	23.563
2.7561	23.626
2.7546	23.623
2.7531	23.618
2.7517	23.633
2.7502	23.601
2.7488	23.584
2.7473	23.627
2.7458	23.650
2.7444	23.669
2.7429	23.726
2.7415	23.770
2.7400	23.785
2.7386	23.766
2.7371	23.758
2.7357	23.780
2.7343	23.781
2.7328	23.784
2.7314	23.777
2.7299	23.784
2.7285	23.794
2.7271	23.830
2.7256	23.880
2.7242	23.908
2.7228	23.876
2.7213	23.901
2.7199	23.930
2.7185	23.868
2.7171	23.846
2.7156	23.870
2.7142	23.871
2.7128	23.877
2.7114	23.907
2.7100	23.897
2.7085	23.912
2.7071	23.905
2.7057	23.869
2.7043	23.850
2.7029	23.853
2.7015	23.864
2.7001	23.859
2.6987	23.842
2.6973	23.845
2.6959	23.859
2.6945	23.864
2.6931	23.856
2.6917	23.821
2.6903	23.812
2.6889	23.803
2.6875	23.793
2.6861	23.799
2.6847	23.811
2.6833	23.782
2.6819	23.760
2.6805	23.770
2.6791	23.807
2.6778	23.798
2.6764	23.830
2.6750	23.791
2.6736	23.747
2.6722	23.764
2.6709	23.861
2.6695	23.868
2.6681	23.810
2.6667	23.867
2.6654	23.890
2.6640	23.823
2.6626	23.747
2.6613	23.730
2.6599	23.732
2.6585	23.723
2.6572	23.708
2.6558	23.708
2.6545	23.697
2.6531	23.700
2.6517	23.689
2.6504	23.662
2.6490	23.634
2.6477	23.629
2.6463	23.635
2.6450	23.631
2.6436	23.621
2.6423	23.595
2.6409	23.566
2.6396	23.566
2.6382	23.562
2.6369	23.543
2.6356	23.556
2.6342	23.566
2.6329	23.561
2.6315	23.587
2.6302	23.611
2.6289	23.543
2.6275	23.517
2.6262	23.532
2.6249	23.492
2.6236	23.470
2.6222	23.485
2.6209	23.529
2.6196	23.513
2.6183	23.456
2.6169	23.473
2.6156	23.448
2.6143	23.380
2.6130	23.371
2.6117	23.361
2.6103	23.359
2.6090	23.360
2.6077	23.342
2.6064	23.373
2.6051	23.387
2.6038	23.349
2.6025	23.327
2.6012	23.280
2.5999	23.238
2.5986	23.269
2.5973	23.320
2.5960	23.390
2.5947	23.430
2.5934	23.307
2.5921	23.205
2.5908	23.210
2.5895	23.225
2.5882	23.196
2.5869	23.180
2.5856	23.190
2.5843	23.237
2.5830	23.205
2.5817	23.153
2.5805	23.159
2.5792	23.139
2.5779	23.122
2.5766	23.099
2.5753	23.056
2.5741	23.043
2.5728	23.031
2.5715	23.013
2.5702	23.052
2.5690	23.041
2.5677	23.008
2.5664	23.005
2.5651	22.984
2.5639	22.997
2.5626	22.994
2.5613	22.963
2.5601	22.931
2.5588	22.903
2.5575	22.908
2.5563	22.890
2.5550	22.877
2.5538	22.879
2.5525	22.866
2.5513	22.835
2.5500	22.819
2.5487	22.784
2.5475	22.772
2.5462	22.764
2.5450	22.764
2.5437	22.763
2.5425	22.755
2.5413	22.737
2.5400	22.720
2.5388	22.718
2.5375	22.700
2.5363	22.676
2.5350	22.672
2.5338	22.666
2.5326	22.630
2.5313	22.580
2.5301	22.597
2.5289	22.622
2.5276	22.602
2.5264	22.589
2.5252	22.582
2.5239	22.576
2.5227	22.549
2.5215	22.516
2.5202	22.529
2.5190	22.514
2.5178	22.514
2.5166	22.506
2.5154	22.479
2.5141	22.480
2.5129	22.479
2.5117	22.448
2.5105	22.433
2.5093	22.435
2.5081	22.431
2.5068	22.410
2.5056	22.366
2.5044	22.342
2.5032	22.351
2.5020	22.368
2.5008	22.379
2.4996	22.341
2.4984	22.285
2.4972	22.274
2.4960	22.268
2.4948	22.267
2.4936	22.271
2.4924	22.244
2.4912	22.241
2.4900	22.240
2.4888	22.210
2.4876	22.175
2.4864	22.153
2.4852	22.127
2.4840	22.144
2.4828	22.161
2.4816	22.119
2.4805	22.119
2.4793	22.108
2.4781	22.076
2.4769	22.067
2.4757	22.064
2.4745	22.029
2.4734	22.006
2.4722	22.005
2.4710	22.026
2.4698	22.054
2.4686	22.025
2.4675	22.000
2.4663	21.962
2.4651	21.937
2.4640	21.952
2.4628	21.975
2.4616	21.963
2.4604	21.924
2.4593	21.910
2.4581	21.930
2.4569	21.913
2.4558	21.909
2.4546	21.911
2.4535	21.882
2.4523	21.861
2.4511	21.852
2.4500	21.810
2.4488	21.765
2.4477	21.777
2.4465	21.783
2.4454	21.750
2.4442	21.733
2.4431	21.736
2.4419	21.763
2.4408	21.739
2.4396	21.705
2.4385	21.715
2.4373	21.689
2.4362	21.644
2.4350	21.631
2.4339	21.654
2.4327	21.632
2.4316	21.600
2.4305	21.597
2.4293	21.589
2.4282	21.604
2.4270	21.596
2.4259	21.580
2.4248	21.586
2.4236	21.576
2.4225	21.544
2.4214	21.506
2.4202	21.531
2.4191	21.537
2.4180	21.503
2.4169	21.500
2.4157	21.503
2.4146	21.481
2.4135	21.452
2.4124	21.443
2.4112	21.422
2.4101	21.435
2.4090	21.419
2.4079	21.388
2.4068	21.364
2.4056	21.360
2.4045	21.371
2.4034	21.394
2.4023	21.383
2.4012	21.343
2.4001	21.330
2.3990	21.329
2.3979	21.319
2.3967	21.328
2.3956	21.319
2.3945	21.269
2.3934	21.273
2.3923	21.249
2.3912	21.217
2.3901	21.233
2.3890	21.231
2.3879	21.203
2.3868	21.199
2.3857	21.176
2.3846	21.168
2.3835	21.205
2.3824	21.187
2.3813	21.135
2.3802	21.123
2.3791	21.147
2.3781	21.117
2.3770	21.075
2.3759	21.082
2.3748	21.088
2.3737	21.072
2.3726	21.029
2.3715	21.038
2.3704	21.063
2.3694	21.054
2.3683	21.016
2.3672	20.987
2.3661	20.987
2.3650	20.989
2.3640	20.970
2.3629	20.953
2.3618	20.972
2.3607	20.974
2.3597	20.935
2.3586	20.910
2.3575	20.947
2.3564	20.945
2.3554	20.928
2.3543	20.918
2.3532	20.900
2.3522	20.881
2.3511	20.894
2.3500	20.899
2.3490	20.882
2.3479	20.860
2.3468	20.817
2.3458	20.795
2.3447	20.820
2.3436	20.812
2.3426	20.785
2.3415	20.796
2.3405	20.779
2.3394	20.734
2.3384	20.731
2.3373	20.767
2.3363	20.750
2.3352	20.733
2.3342	20.752
2.3331	20.719
2.3321	20.697
2.3310	20.725
2.3300	20.721
2.3289	20.680
2.3279	20.643
2.3268	20.634
2.3258	20.646
2.3247	20.631
2.3237	20.622
2.3226	20.610
2.3216	20.654
2.3206	20.647
2.3195	20.607
2.3185	20.617
2.3175	20.628
2.3164	20.603
2.3154	20.567
2.3144	20.534
2.3133	20.531
2.3123	20.554
2.3113	20.552
2.3102	20.559
2.3092	20.563
2.3082	20.537
2.3071	20.525
2.3061	20.499
2.3051	20.492
2.3041	20.533
2.3030	20.511
2.3020	20.469
2.3010	20.453
2.3000	20.452
2.2990	20.478
2.2979	20.493
2.2969	20.450
2.2959	20.435
2.2949	20.455
2.2939	20.438
2.2929	20.402
2.2918	20.383
2.2908	20.374
2.2898	20.400
2.2888	20.386
2.2878	20.344
2.2868	20.344
2.2858	20.377
2.2848	20.348
2.2838	20.312
2.2828	20.322
2.2818	20.321
2.2808	20.294
2.2798	20.296
2.2787	20.282
2.2777	20.282
2.2767	20.243
2.2757	20.238
2.2747	20.271
2.2738	20.259
2.2728	20.255
2.2718	20.229
2.2708	20.231
2.2698	20.255
2.2688	20.250
2.2678	20.221
2.2668	20.205
2.2658	20.209
2.2648	20.218
2.2638	20.220
2.2628	20.192
2.2618	20.131
2.2609	20.127
2.2599	20.135
2.2589	20.121
2.2579	20.151
2.2569	20.171
2.2559	20.113
2.2550	20.089
2.2540	20.087
2.2530	20.072
2.2520	20.072
2.2510	20.056
2.2501	20.031
2.2491	20.058
2.2481	20.056
2.2471	20.030
2.2462	20.040
2.2452	20.062
2.2442	20.057
2.2433	20.032
2.2423	19.997
2.2413	19.980
2.2403	20.006
2.2394	19.995
2.2384	20.001
2.2374	19.976
2.2365	19.981
2.2355	19.985
2.2345	19.987
2.2336	19.981
2.2326	19.936
2.2317	19.885
2.2307	19.887
2.2297	19.913
2.2288	19.882
2.2278	19.890
2.2269	19.901
2.2259	19.891
2.2250	19.850
2.2240	19.862
2.2231	19.883
2.2221	19.845
2.2211	19.843
2.2202	19.868
2.2192	19.842
2.2183	19.823
2.2173	19.833
2.2164	19.807
2.2155	19.794
2.2145	19.779
2.2136	19.756
2.2126	19.783
2.2117	19.823
2.2107	19.783
2.2098	19.786
2.2088	19.842
2.2079	19.791
2.2070	19.752
2.2060	19.734
2.2051	19.750
2.2041	19.767
2.2032	19.756
2.2023	19.751
2.2013	19.708
2.2004	19.696
2.1995	19.715
2.1985	19.727
2.1976	19.692
2.1967	19.670
2.1957	19.693
2.1948	19.653
2.1939	19.636
2.1930	19.646
2.1920	19.644
2.1911	19.625
2.1902	19.598
2.1893	19.644
2.1883	19.688
2.1874	19.654
2.1865	19.664
2.1856	19.679
2.1846	19.655
2.1837	19.592
2.1828	19.584
2.1819	19.610
2.1810	19.619
2.1800	19.621
2.1791	19.619
2.1782	19.625
2.1773	19.613
2.1764	19.585
2.1755	19.564
2.1746	19.570
2.1736	19.570
2.1727	19.577
2.1718	19.544
2.1709	19.485
2.1700	19.502
2.1691	19.551
2.1682	19.547
2.1673	19.502
2.1664	19.471
2.1655	19.484
2.1646	19.492
2.1637	19.516
2.1628	19.553
2.1619	19.514
2.1610	19.420
2.1601	19.461
2.1592	19.480
2.1583	19.471
2.1574	19.452
2.1565	19.456
2.1556	19.480
2.1547	19.426
2.1538	19.410
2.1529	19.409
2.1520	19.378
2.1511	19.381
2.1502	19.438
2.1493	19.450
2.1484	19.387
2.1475	19.367
2.1466	19.428
2.1458	19.424
2.1449	19.340
2.1440	19.309
2.1431	19.369
2.1422	19.405
2.1413	19.383
2.1404	19.337
2.1396	19.281
2.1387	19.319
2.1378	19.364
2.1369	19.305
2.1360	19.294
2.1352	19.317
2.1343	19.304
2.1334	19.301
2.1325	19.270
2.1316	19.213
2.1308	19.255
2.1299	19.328
2.1290	19.327
2.1281	19.309
2.1273	19.284
2.1264	19.264
2.1255	19.291
2.1247	19.286
2.1238	19.256
2.1229	19.287
2.1220	19.290
2.1212	19.229
2.1203	19.229
2.1194	19.281
2.1186	19.276
2.1177	19.267
2.1168	19.242
2.1160	19.176
2.1151	19.174
2.1143	19.215
2.1134	19.199
2.1125	19.206
2.1117	19.237
2.1108	19.208
2.1100	19.199
2.1091	19.191
2.1082	19.214
2.1074	19.231
2.1065	19.198
2.1057	19.187
2.1048	19.171
2.1040	19.171
2.1031	19.136
2.1023	19.089
2.1014	19.157
2.1005	19.171
2.0997	19.144
2.0988	19.166
2.0980	19.197
2.0971	19.161
2.0963	19.089
2.0955	19.085
2.0946	19.125
2.0938	19.159
2.0929	19.111
2.0921	19.036
2.0912	19.046
2.0904	19.103
2.0895	19.103
2.0887	19.060
2.0879	19.068
2.0870	19.106
2.0862	19.084
2.0853	19.090
2.0845	19.123
2.0837	19.070
2.0828	19.054
2.0820	19.104
2.0812	19.092
2.0803	19.069
2.0795	19.080

