Name: 68501.609
Type: Soil
Class: Lunar
Subclass: Highlands
Particle Size: Fine
Sample No.: 68501.609
Owner: JHU
Wavelength range: IR
Origin: Apollo 16 landing site via the NASA Lunar Sample Repository at Johnson 
Space Center, Houston, TX.
Description:  This sample is one of a suite of relatively less aluminous soils 
at the Apollo 16 site, and has the oldest exposure age of the three soils of that suite 
(Is/FeO=85).



Measurement:  Directional (10 degree) hemispherical reflectance
First Column:  X
Second Column:  Y
X Units:  Wavelength (micrometers)
Y Units:  Reflectance (percent)
First X Value:  14.011
Last X Value:  2.079
Number of X Values:  2124
Additional information:  None

14.011	0.65790
13.973	0.71918
13.936	0.81186
13.899	0.82275
13.861	0.78594
13.824	0.80397
13.788	0.85355
13.751	0.86489
13.715	0.86435
13.679	0.88067
13.643	0.90832
13.607	0.88293
13.571	0.86277
13.536	0.91643
13.500	0.97177
13.465	0.97338
13.430	0.99466
13.396	1.0354
13.361	1.0581
13.327	1.0690
13.293	1.0680
13.259	1.0774
13.225	1.0653
13.191	1.0509
13.158	1.0775
13.124	1.0990
13.091	1.0806
13.058	1.0665
13.026	1.0963
12.993	1.1538
12.960	1.1702
12.928	1.1764
12.896	1.2175
12.864	1.2360
12.832	1.2826
12.800	1.3552
12.769	1.4006
12.737	1.4793
12.706	1.5728
12.675	1.6328
12.644	1.7083
12.614	1.7926
12.583	1.8474
12.552	1.9014
12.522	1.9780
12.492	2.0428
12.462	2.0763
12.432	2.1242
12.402	2.1754
12.373	2.2066
12.343	2.2309
12.314	2.2704
12.285	2.3069
12.256	2.3208
12.227	2.3086
12.198	2.2966
12.169	2.3002
12.141	2.3068
12.113	2.2881
12.084	2.2688
12.056	2.2372
12.028	2.2147
12.000	2.2027
11.973	2.1863
11.945	2.1593
11.918	2.1426
11.890	2.1511
11.863	2.1581
11.836	2.1605
11.809	2.1498
11.782	2.1404
11.755	2.1537
11.729	2.1635
11.702	2.1605
11.676	2.1491
11.650	2.1475
11.624	2.1472
11.598	2.1623
11.572	2.1745
11.546	2.1549
11.520	2.1489
11.495	2.1736
11.469	2.1766
11.444	2.1775
11.419	2.1820
11.394	2.1834
11.369	2.1877
11.344	2.1784
11.319	2.1691
11.294	2.1736
11.270	2.1640
11.245	2.1749
11.221	2.1757
11.197	2.1583
11.173	2.1504
11.149	2.1435
11.125	2.1367
11.101	2.1396
11.077	2.1637
11.054	2.1832
11.030	2.1657
11.007	2.1578
10.983	2.1858
10.960	2.2085
10.937	2.2039
10.914	2.2104
10.891	2.2319
10.868	2.2512
10.846	2.2472
10.823	2.2501
10.800	2.2484
10.778	2.2392
10.755	2.2297
10.733	2.2062
10.711	2.1834
10.689	2.1620
10.667	2.1475
10.645	2.1494
10.623	2.1345
10.602	2.1053
10.580	2.0806
10.558	2.0575
10.537	2.0335
10.516	2.0306
10.494	2.0250
10.473	1.9807
10.452	1.9430
10.431	1.9320
10.410	1.8864
10.389	1.8477
10.368	1.8220
10.348	1.7928
10.327	1.7600
10.306	1.7273
10.286	1.6850
10.266	1.6615
10.245	1.6406
10.225	1.6035
10.205	1.5719
10.185	1.5730
10.165	1.5666
10.145	1.5536
10.125	1.5365
10.106	1.5082
10.086	1.4975
10.066	1.4933
10.047	1.4845
10.027	1.4774
10.008	1.4479
9.9887	1.4233
9.9695	1.4225
9.9504	1.4142
9.9313	1.4089
9.9123	1.4058
9.8934	1.4042
9.8746	1.4055
9.8558	1.4054
9.8371	1.4059
9.8185	1.4053
9.7999	1.4106
9.7814	1.3883
9.7630	1.3882
9.7447	1.3856
9.7264	1.3754
9.7082	1.3728
9.6900	1.3535
9.6719	1.3291
9.6539	1.3379
9.6360	1.3222
9.6181	1.2934
9.6003	1.2703
9.5825	1.2503
9.5649	1.2386
9.5472	1.2218
9.5297	1.2041
9.5122	1.1960
9.4948	1.1998
9.4774	1.1865
9.4601	1.1722
9.4429	1.1546
9.4257	1.1300
9.4086	1.1261
9.3916	1.1363
9.3746	1.1198
9.3577	1.1056
9.3408	1.0998
9.3240	1.0907
9.3073	1.0687
9.2906	1.0959
9.2740	1.1274
9.2574	1.1165
9.2409	1.0897
9.2245	1.0897
9.2081	1.1214
9.1918	1.1262
9.1755	1.1187
9.1593	1.1146
9.1431	1.1324
9.1270	1.1561
9.1110	1.1646
9.0950	1.1672
9.0791	1.1567
9.0632	1.1524
9.0474	1.1526
9.0316	1.1465
9.0159	1.1339
9.0003	1.1211
8.9847	1.1180
8.9691	1.1172
8.9536	1.1098
8.9382	1.1300
8.9228	1.1224
8.9075	1.0899
8.8922	1.0741
8.8770	1.0761
8.8618	1.0790
8.8467	1.0902
8.8316	1.0961
8.8166	1.0819
8.8016	1.0802
8.7867	1.0843
8.7718	1.0682
8.7570	1.0702
8.7422	1.0820
8.7275	1.0807
8.7129	1.0795
8.6982	1.0710
8.6837	1.0594
8.6692	1.0401
8.6547	1.0380
8.6403	1.0415
8.6259	1.0248
8.6116	0.98680
8.5973	0.95727
8.5830	0.95786
8.5688	0.95378
8.5547	0.93630
8.5406	0.90443
8.5266	0.87059
8.5126	0.84844
8.4986	0.82962
8.4847	0.81323
8.4708	0.80386
8.4570	0.77928
8.4432	0.73983
8.4295	0.71336
8.4158	0.69195
8.4022	0.66922
8.3886	0.63791
8.3750	0.60797
8.3615	0.59720
8.3481	0.55942
8.3347	0.52056
8.3213	0.51551
8.3079	0.50561
8.2946	0.48045
8.2814	0.46200
8.2682	0.45895
8.2550	0.44227
8.2419	0.43614
8.2288	0.43737
8.2158	0.42453
8.2028	0.42844
8.1898	0.44008
8.1769	0.45199
8.1640	0.46054
8.1512	0.46840
8.1384	0.48451
8.1256	0.49854
8.1129	0.53241
8.1002	0.55634
8.0876	0.57608
8.0750	0.61841
8.0624	0.64505
8.0499	0.68160
8.0374	0.71707
8.0250	0.76851
8.0126	0.81915
8.0002	0.85158
7.9879	0.88532
7.9756	0.95382
7.9634	1.0209
7.9512	1.0761
7.9390	1.1381
7.9268	1.1999
7.9147	1.2668
7.9027	1.3512
7.8906	1.4326
7.8786	1.4882
7.8667	1.5496
7.8548	1.6399
7.8429	1.7324
7.8310	1.8034
7.8192	1.8858
7.8075	1.9655
7.7957	2.0423
7.7840	2.1254
7.7723	2.2051
7.7607	2.2904
7.7491	2.3860
7.7375	2.4789
7.7260	2.5702
7.7145	2.6734
7.7031	2.7671
7.6916	2.8527
7.6802	2.9485
7.6689	3.0462
7.6575	3.1447
7.6462	3.2338
7.6350	3.3194
7.6238	3.4106
7.6126	3.4905
7.6014	3.5762
7.5903	3.6771
7.5792	3.7868
7.5681	3.8652
7.5571	3.9393
7.5461	4.0331
7.5351	4.1448
7.5242	4.2324
7.5133	4.3186
7.5024	4.4180
7.4916	4.5099
7.4807	4.5930
7.4700	4.6823
7.4592	4.7821
7.4485	4.8828
7.4378	4.9757
7.4272	5.0583
7.4165	5.1506
7.4059	5.2541
7.3954	5.3363
7.3848	5.4153
7.3743	5.5136
7.3639	5.6086
7.3534	5.6910
7.3430	5.7706
7.3326	5.8689
7.3223	5.9610
7.3119	6.0409
7.3016	6.1260
7.2914	6.1960
7.2811	6.2763
7.2709	6.3591
7.2607	6.4434
7.2506	6.5308
7.2404	6.6079
7.2303	6.6767
7.2203	6.7458
7.2102	6.8237
7.2002	6.9106
7.1902	6.9921
7.1803	7.0668
7.1703	7.1494
7.1604	7.2236
7.1506	7.2729
7.1407	7.3379
7.1309	7.4127
7.1211	7.4748
7.1113	7.5356
7.1016	7.5980
7.0919	7.6686
7.0822	7.7267
7.0725	7.7770
7.0629	7.8370
7.0533	7.9116
7.0437	7.9734
7.0341	8.0542
7.0246	8.1266
7.0151	8.1867
7.0056	8.2376
6.9962	8.2818
6.9867	8.3462
6.9773	8.4184
6.9679	8.4684
6.9586	8.5227
6.9493	8.5824
6.9400	8.6351
6.9307	8.6802
6.9214	8.7135
6.9122	8.7486
6.9030	8.7953
6.8938	8.8316
6.8847	8.8690
6.8755	8.9018
6.8664	8.9354
6.8573	8.9698
6.8483	9.0074
6.8393	9.0473
6.8302	9.0845
6.8213	9.1143
6.8123	9.1605
6.8034	9.1890
6.7944	9.2206
6.7855	9.2621
6.7767	9.3018
6.7678	9.3372
6.7590	9.3749
6.7502	9.4115
6.7414	9.4459
6.7327	9.4681
6.7239	9.4918
6.7152	9.5142
6.7065	9.5474
6.6979	9.5683
6.6892	9.5884
6.6806	9.6094
6.6720	9.6306
6.6634	9.6493
6.6549	9.6630
6.6464	9.6820
6.6378	9.7163
6.6294	9.7422
6.6209	9.7729
6.6124	9.8106
6.6040	9.8455
6.5956	9.8788
6.5872	9.8980
6.5789	9.9350
6.5705	9.9751
6.5622	10.009
6.5539	10.046
6.5456	10.094
6.5374	10.125
6.5292	10.147
6.5209	10.188
6.5128	10.239
6.5046	10.270
6.4964	10.300
6.4883	10.334
6.4802	10.377
6.4721	10.417
6.4640	10.433
6.4560	10.459
6.4480	10.484
6.4399	10.516
6.4320	10.553
6.4240	10.589
6.4160	10.614
6.4081	10.623
6.4002	10.628
6.3923	10.625
6.3844	10.618
6.3766	10.624
6.3687	10.639
6.3609	10.643
6.3531	10.644
6.3454	10.629
6.3376	10.631
6.3299	10.656
6.3221	10.667
6.3144	10.665
6.3068	10.693
6.2991	10.722
6.2914	10.733
6.2838	10.746
6.2762	10.789
6.2686	10.820
6.2611	10.835
6.2535	10.836
6.2460	10.846
6.2385	10.869
6.2310	10.887
6.2235	10.905
6.2160	10.914
6.2086	10.926
6.2011	10.954
6.1937	10.979
6.1863	10.981
6.1790	10.986
6.1716	11.007
6.1643	11.047
6.1570	11.061
6.1496	11.080
6.1424	11.118
6.1351	11.142
6.1278	11.152
6.1206	11.189
6.1134	11.225
6.1062	11.244
6.0990	11.262
6.0918	11.272
6.0847	11.271
6.0776	11.304
6.0704	11.335
6.0633	11.349
6.0563	11.377
6.0492	11.409
6.0421	11.429
6.0351	11.456
6.0281	11.480
6.0211	11.524
6.0141	11.581
6.0071	11.638
6.0002	11.710
5.9932	11.800
5.9863	11.887
5.9794	11.952
5.9725	12.022
5.9657	12.123
5.9588	12.234
5.9520	12.332
5.9451	12.419
5.9383	12.519
5.9315	12.603
5.9247	12.694
5.9180	12.790
5.9112	12.880
5.9045	12.973
5.8978	13.078
5.8911	13.166
5.8844	13.252
5.8777	13.338
5.8711	13.420
5.8644	13.513
5.8578	13.605
5.8512	13.693
5.8446	13.792
5.8380	13.888
5.8314	13.973
5.8249	14.057
5.8184	14.132
5.8118	14.223
5.8053	14.323
5.7988	14.413
5.7923	14.493
5.7859	14.558
5.7794	14.637
5.7730	14.729
5.7666	14.823
5.7602	14.878
5.7538	14.936
5.7474	14.997
5.7410	15.060
5.7347	15.115
5.7283	15.164
5.7220	15.205
5.7157	15.240
5.7094	15.287
5.7031	15.338
5.6969	15.378
5.6906	15.408
5.6844	15.436
5.6782	15.456
5.6719	15.488
5.6657	15.546
5.6596	15.599
5.6534	15.632
5.6472	15.673
5.6411	15.739
5.6349	15.787
5.6288	15.828
5.6227	15.885
5.6166	15.955
5.6106	15.999
5.6045	16.043
5.5984	16.102
5.5924	16.151
5.5864	16.196
5.5804	16.233
5.5744	16.265
5.5684	16.293
5.5624	16.311
5.5564	16.332
5.5505	16.346
5.5445	16.345
5.5386	16.342
5.5327	16.351
5.5268	16.365
5.5209	16.360
5.5151	16.351
5.5092	16.345
5.5033	16.349
5.4975	16.345
5.4917	16.342
5.4859	16.348
5.4801	16.357
5.4743	16.356
5.4685	16.369
5.4628	16.400
5.4570	16.414
5.4513	16.420
5.4455	16.436
5.4398	16.481
5.4341	16.527
5.4284	16.571
5.4228	16.623
5.4171	16.680
5.4114	16.733
5.4058	16.778
5.4002	16.842
5.3945	16.912
5.3889	16.988
5.3833	17.062
5.3778	17.116
5.3722	17.187
5.3666	17.262
5.3611	17.310
5.3555	17.369
5.3500	17.440
5.3445	17.500
5.3390	17.562
5.3335	17.609
5.3280	17.650
5.3225	17.706
5.3171	17.741
5.3116	17.788
5.3062	17.843
5.3008	17.894
5.2954	17.952
5.2900	18.010
5.2846	18.065
5.2792	18.126
5.2738	18.195
5.2684	18.255
5.2631	18.322
5.2578	18.392
5.2524	18.452
5.2471	18.507
5.2418	18.579
5.2365	18.651
5.2312	18.723
5.2260	18.785
5.2207	18.847
5.2154	18.915
5.2102	18.987
5.2050	19.058
5.1998	19.114
5.1945	19.170
5.1893	19.239
5.1842	19.301
5.1790	19.372
5.1738	19.459
5.1686	19.541
5.1635	19.612
5.1584	19.707
5.1532	19.797
5.1481	19.865
5.1430	19.945
5.1379	20.050
5.1328	20.144
5.1277	20.232
5.1227	20.316
5.1176	20.382
5.1126	20.457
5.1075	20.543
5.1025	20.630
5.0975	20.707
5.0925	20.787
5.0875	20.864
5.0825	20.931
5.0775	20.999
5.0726	21.081
5.0676	21.152
5.0627	21.213
5.0577	21.289
5.0528	21.368
5.0479	21.448
5.0430	21.522
5.0380	21.614
5.0332	21.700
5.0283	21.766
5.0234	21.836
5.0185	21.918
5.0137	22.005
5.0088	22.087
5.0040	22.170
4.9992	22.249
4.9944	22.338
4.9896	22.417
4.9848	22.482
4.9800	22.564
4.9752	22.649
4.9704	22.728
4.9657	22.812
4.9609	22.885
4.9562	22.956
4.9514	23.037
4.9467	23.126
4.9420	23.214
4.9373	23.290
4.9326	23.369
4.9279	23.454
4.9232	23.529
4.9186	23.606
4.9139	23.677
4.9092	23.749
4.9046	23.830
4.9000	23.900
4.8953	23.976
4.8907	24.062
4.8861	24.121
4.8815	24.186
4.8769	24.270
4.8723	24.340
4.8678	24.400
4.8632	24.480
4.8586	24.559
4.8541	24.632
4.8495	24.705
4.8450	24.769
4.8405	24.837
4.8360	24.912
4.8315	24.979
4.8270	25.038
4.8225	25.103
4.8180	25.165
4.8135	25.234
4.8090	25.306
4.8046	25.363
4.8001	25.419
4.7957	25.481
4.7913	25.538
4.7868	25.598
4.7824	25.652
4.7780	25.701
4.7736	25.754
4.7692	25.813
4.7648	25.872
4.7605	25.943
4.7561	26.008
4.7517	26.058
4.7474	26.114
4.7431	26.174
4.7387	26.245
4.7344	26.301
4.7301	26.361
4.7258	26.427
4.7215	26.491
4.7172	26.558
4.7129	26.629
4.7086	26.705
4.7043	26.778
4.7000	26.847
4.6958	26.896
4.6915	26.949
4.6873	27.009
4.6831	27.073
4.6788	27.152
4.6746	27.215
4.6704	27.262
4.6662	27.314
4.6620	27.368
4.6578	27.428
4.6536	27.508
4.6495	27.560
4.6453	27.609
4.6411	27.680
4.6370	27.764
4.6328	27.839
4.6287	27.919
4.6246	27.996
4.6205	28.075
4.6163	28.148
4.6122	28.213
4.6081	28.282
4.6040	28.363
4.6000	28.437
4.5959	28.494
4.5918	28.554
4.5877	28.613
4.5837	28.678
4.5796	28.746
4.5756	28.800
4.5716	28.856
4.5675	28.913
4.5635	28.969
4.5595	29.016
4.5555	29.064
4.5515	29.108
4.5475	29.165
4.5435	29.213
4.5395	29.241
4.5356	29.272
4.5316	29.319
4.5276	29.380
4.5237	29.424
4.5197	29.457
4.5158	29.484
4.5119	29.518
4.5080	29.552
4.5040	29.588
4.5001	29.637
4.4962	29.666
4.4923	29.685
4.4884	29.718
4.4846	29.745
4.4807	29.760
4.4768	29.771
4.4730	29.799
4.4691	29.826
4.4652	29.839
4.4614	29.855
4.4576	29.889
4.4537	29.902
4.4499	29.913
4.4461	29.925
4.4423	29.925
4.4385	29.934
4.4347	29.962
4.4309	29.997
4.4271	30.011
4.4233	30.003
4.4196	30.007
4.4158	30.018
4.4120	30.035
4.4083	30.057
4.4045	30.071
4.4008	30.080
4.3971	30.100
4.3934	30.115
4.3896	30.137
4.3859	30.168
4.3822	30.180
4.3785	30.202
4.3748	30.228
4.3711	30.259
4.3674	30.276
4.3638	30.297
4.3601	30.327
4.3564	30.346
4.3528	30.373
4.3491	30.398
4.3455	30.428
4.3418	30.457
4.3382	30.485
4.3346	30.508
4.3310	30.540
4.3273	30.563
4.3237	30.593
4.3201	30.622
4.3165	30.629
4.3129	30.646
4.3094	30.688
4.3058	30.723
4.3022	30.751
4.2986	30.778
4.2951	30.804
4.2915	30.843
4.2880	30.881
4.2844	30.915
4.2809	30.936
4.2774	30.949
4.2738	30.981
4.2703	31.012
4.2668	31.027
4.2633	31.042
4.2598	31.046
4.2563	31.067
4.2528	31.094
4.2493	31.114
4.2458	31.131
4.2424	31.143
4.2389	31.162
4.2354	31.188
4.2320	31.209
4.2285	31.219
4.2251	31.208
4.2216	31.208
4.2182	31.214
4.2148	31.221
4.2113	31.232
4.2079	31.244
4.2045	31.238
4.2011	31.247
4.1977	31.264
4.1943	31.269
4.1909	31.261
4.1875	31.271
4.1841	31.277
4.1808	31.284
4.1774	31.299
4.1740	31.306
4.1707	31.308
4.1673	31.305
4.1640	31.317
4.1606	31.329
4.1573	31.320
4.1540	31.315
4.1506	31.313
4.1473	31.326
4.1440	31.341
4.1407	31.350
4.1374	31.347
4.1341	31.347
4.1308	31.355
4.1275	31.337
4.1242	31.335
4.1209	31.362
4.1177	31.361
4.1144	31.357
4.1111	31.369
4.1079	31.374
4.1046	31.375
4.1014	31.382
4.0981	31.386
4.0949	31.376
4.0917	31.370
4.0884	31.378
4.0852	31.387
4.0820	31.393
4.0788	31.387
4.0756	31.383
4.0724	31.396
4.0692	31.404
4.0660	31.392
4.0628	31.392
4.0596	31.396
4.0565	31.398
4.0533	31.407
4.0501	31.408
4.0470	31.411
4.0438	31.409
4.0406	31.408
4.0375	31.403
4.0344	31.400
4.0312	31.397
4.0281	31.409
4.0250	31.420
4.0218	31.405
4.0187	31.392
4.0156	31.406
4.0125	31.414
4.0094	31.408
4.0063	31.415
4.0032	31.420
4.0001	31.414
3.9970	31.427
3.9940	31.440
3.9909	31.434
3.9878	31.433
3.9847	31.441
3.9817	31.438
3.9786	31.446
3.9756	31.444
3.9725	31.441
3.9695	31.425
3.9665	31.422
3.9634	31.434
3.9604	31.446
3.9574	31.444
3.9544	31.426
3.9513	31.412
3.9483	31.402
3.9453	31.407
3.9423	31.410
3.9393	31.406
3.9363	31.402
3.9333	31.396
3.9304	31.387
3.9274	31.398
3.9244	31.388
3.9214	31.370
3.9185	31.382
3.9155	31.392
3.9126	31.382
3.9096	31.370
3.9067	31.371
3.9037	31.373
3.9008	31.368
3.8979	31.364
3.8949	31.347
3.8920	31.336
3.8891	31.338
3.8862	31.340
3.8833	31.342
3.8804	31.346
3.8775	31.326
3.8746	31.303
3.8717	31.309
3.8688	31.318
3.8659	31.313
3.8630	31.306
3.8601	31.300
3.8573	31.294
3.8544	31.278
3.8515	31.279
3.8487	31.272
3.8458	31.271
3.8430	31.274
3.8401	31.279
3.8373	31.260
3.8344	31.253
3.8316	31.252
3.8288	31.235
3.8259	31.220
3.8231	31.205
3.8203	31.208
3.8175	31.215
3.8147	31.223
3.8119	31.221
3.8091	31.207
3.8063	31.197
3.8035	31.187
3.8007	31.175
3.7979	31.158
3.7951	31.142
3.7924	31.133
3.7896	31.136
3.7868	31.135
3.7841	31.126
3.7813	31.100
3.7785	31.084
3.7758	31.087
3.7730	31.085
3.7703	31.067
3.7676	31.057
3.7648	31.064
3.7621	31.055
3.7594	31.045
3.7566	31.029
3.7539	31.032
3.7512	31.028
3.7485	31.005
3.7458	30.991
3.7431	30.968
3.7404	30.960
3.7377	30.959
3.7350	30.955
3.7323	30.956
3.7296	30.943
3.7269	30.927
3.7242	30.912
3.7216	30.890
3.7189	30.882
3.7162	30.873
3.7136	30.860
3.7109	30.856
3.7083	30.845
3.7056	30.829
3.7030	30.823
3.7003	30.827
3.6977	30.812
3.6950	30.808
3.6924	30.791
3.6898	30.757
3.6872	30.751
3.6845	30.746
3.6819	30.732
3.6793	30.718
3.6767	30.698
3.6741	30.691
3.6715	30.680
3.6689	30.671
3.6663	30.674
3.6637	30.666
3.6611	30.648
3.6585	30.642
3.6560	30.633
3.6534	30.617
3.6508	30.612
3.6482	30.615
3.6457	30.615
3.6431	30.586
3.6406	30.562
3.6380	30.548
3.6355	30.547
3.6329	30.543
3.6304	30.525
3.6278	30.501
3.6253	30.504
3.6227	30.492
3.6202	30.473
3.6177	30.475
3.6152	30.459
3.6127	30.434
3.6101	30.428
3.6076	30.418
3.6051	30.410
3.6026	30.391
3.6001	30.364
3.5976	30.373
3.5951	30.373
3.5926	30.352
3.5901	30.346
3.5876	30.336
3.5852	30.339
3.5827	30.320
3.5802	30.296
3.5777	30.276
3.5753	30.262
3.5728	30.261
3.5704	30.245
3.5679	30.230
3.5654	30.232
3.5630	30.223
3.5605	30.215
3.5581	30.205
3.5557	30.190
3.5532	30.174
3.5508	30.170
3.5484	30.152
3.5459	30.128
3.5435	30.130
3.5411	30.132
3.5387	30.123
3.5363	30.095
3.5338	30.075
3.5314	30.075
3.5290	30.066
3.5266	30.046
3.5242	30.047
3.5218	30.070
3.5195	30.073
3.5171	30.069
3.5147	30.063
3.5123	30.049
3.5099	30.044
3.5075	30.036
3.5052	30.038
3.5028	30.023
3.5004	29.996
3.4981	29.991
3.4957	29.984
3.4934	29.966
3.4910	29.953
3.4887	29.940
3.4863	29.918
3.4840	29.875
3.4816	29.862
3.4793	29.874
3.4770	29.868
3.4746	29.848
3.4723	29.836
3.4700	29.819
3.4677	29.799
3.4653	29.791
3.4630	29.786
3.4607	29.782
3.4584	29.770
3.4561	29.758
3.4538	29.763
3.4515	29.762
3.4492	29.752
3.4469	29.735
3.4446	29.730
3.4423	29.725
3.4400	29.698
3.4378	29.695
3.4355	29.701
3.4332	29.702
3.4309	29.696
3.4287	29.693
3.4264	29.691
3.4241	29.687
3.4219	29.665
3.4196	29.657
3.4174	29.631
3.4151	29.630
3.4129	29.616
3.4106	29.585
3.4084	29.567
3.4061	29.535
3.4039	29.503
3.4017	29.501
3.3994	29.491
3.3972	29.464
3.3950	29.448
3.3928	29.437
3.3906	29.420
3.3883	29.411
3.3861	29.398
3.3839	29.371
3.3817	29.348
3.3795	29.333
3.3773	29.330
3.3751	29.310
3.3729	29.290
3.3707	29.274
3.3685	29.239
3.3663	29.216
3.3641	29.192
3.3620	29.179
3.3598	29.186
3.3576	29.174
3.3554	29.147
3.3533	29.131
3.3511	29.094
3.3489	29.089
3.3468	29.067
3.3446	29.028
3.3425	29.000
3.3403	28.978
3.3382	28.967
3.3360	28.961
3.3339	28.941
3.3317	28.921
3.3296	28.910
3.3274	28.900
3.3253	28.879
3.3232	28.864
3.3210	28.833
3.3189	28.816
3.3168	28.816
3.3147	28.823
3.3126	28.800
3.3104	28.772
3.3083	28.778
3.3062	28.779
3.3041	28.745
3.3020	28.735
3.2999	28.722
3.2978	28.707
3.2957	28.688
3.2936	28.680
3.2915	28.669
3.2894	28.636
3.2874	28.611
3.2853	28.625
3.2832	28.626
3.2811	28.605
3.2790	28.581
3.2770	28.547
3.2749	28.531
3.2728	28.532
3.2708	28.536
3.2687	28.515
3.2666	28.502
3.2646	28.507
3.2625	28.479
3.2605	28.440
3.2584	28.434
3.2564	28.426
3.2543	28.411
3.2523	28.406
3.2503	28.395
3.2482	28.356
3.2462	28.336
3.2442	28.336
3.2421	28.324
3.2401	28.343
3.2381	28.327
3.2361	28.289
3.2340	28.271
3.2320	28.267
3.2300	28.256
3.2280	28.214
3.2260	28.201
3.2240	28.209
3.2220	28.186
3.2200	28.159
3.2180	28.153
3.2160	28.133
3.2140	28.102
3.2120	28.085
3.2100	28.074
3.2080	28.065
3.2060	28.046
3.2040	28.039
3.2021	28.028
3.2001	27.997
3.1981	27.967
3.1961	27.976
3.1942	27.970
3.1922	27.949
3.1902	27.939
3.1883	27.936
3.1863	27.908
3.1844	27.890
3.1824	27.893
3.1805	27.891
3.1785	27.870
3.1766	27.858
3.1746	27.830
3.1727	27.817
3.1707	27.811
3.1688	27.798
3.1669	27.778
3.1649	27.745
3.1630	27.735
3.1611	27.720
3.1591	27.713
3.1572	27.718
3.1553	27.698
3.1534	27.651
3.1515	27.637
3.1495	27.634
3.1476	27.634
3.1457	27.636
3.1438	27.626
3.1419	27.602
3.1400	27.585
3.1381	27.559
3.1362	27.555
3.1343	27.571
3.1324	27.550
3.1305	27.520
3.1286	27.502
3.1268	27.504
3.1249	27.493
3.1230	27.452
3.1211	27.432
3.1192	27.443
3.1174	27.418
3.1155	27.404
3.1136	27.405
3.1117	27.405
3.1099	27.402
3.1080	27.373
3.1061	27.342
3.1043	27.331
3.1024	27.346
3.1006	27.337
3.0987	27.330
3.0969	27.318
3.0950	27.285
3.0932	27.261
3.0913	27.255
3.0895	27.244
3.0876	27.227
3.0858	27.215
3.0840	27.222
3.0821	27.220
3.0803	27.217
3.0785	27.205
3.0766	27.204
3.0748	27.209
3.0730	27.194
3.0712	27.160
3.0694	27.157
3.0675	27.156
3.0657	27.119
3.0639	27.105
3.0621	27.122
3.0603	27.116
3.0585	27.095
3.0567	27.075
3.0549	27.092
3.0531	27.098
3.0513	27.064
3.0495	27.061
3.0477	27.071
3.0459	27.048
3.0441	27.028
3.0423	27.023
3.0406	26.985
3.0388	26.996
3.0370	27.015
3.0352	26.986
3.0334	26.963
3.0317	26.949
3.0299	26.945
3.0281	26.954
3.0264	26.927
3.0246	26.897
3.0228	26.914
3.0211	26.913
3.0193	26.903
3.0176	26.878
3.0158	26.839
3.0140	26.859
3.0123	26.873
3.0105	26.855
3.0088	26.830
3.0070	26.830
3.0053	26.810
3.0036	26.775
3.0018	26.807
3.0001	26.799
2.9984	26.757
2.9966	26.736
2.9949	26.711
2.9932	26.684
2.9914	26.698
2.9897	26.711
2.9880	26.704
2.9863	26.679
2.9845	26.653
2.9828	26.658
2.9811	26.664
2.9794	26.664
2.9777	26.642
2.9760	26.632
2.9743	26.627
2.9726	26.600
2.9709	26.601
2.9692	26.584
2.9675	26.578
2.9658	26.580
2.9641	26.565
2.9624	26.568
2.9607	26.584
2.9590	26.605
2.9573	26.591
2.9556	26.554
2.9539	26.527
2.9523	26.508
2.9506	26.506
2.9489	26.502
2.9472	26.483
2.9455	26.478
2.9439	26.485
2.9422	26.492
2.9405	26.477
2.9389	26.494
2.9372	26.488
2.9355	26.470
2.9339	26.459
2.9322	26.484
2.9306	26.473
2.9289	26.455
2.9272	26.446
2.9256	26.447
2.9239	26.449
2.9223	26.416
2.9207	26.398
2.9190	26.420
2.9174	26.419
2.9157	26.408
2.9141	26.426
2.9124	26.446
2.9108	26.417
2.9092	26.409
2.9075	26.408
2.9059	26.372
2.9043	26.360
2.9027	26.373
2.9010	26.387
2.8994	26.385
2.8978	26.354
2.8962	26.343
2.8946	26.350
2.8929	26.350
2.8913	26.361
2.8897	26.351
2.8881	26.349
2.8865	26.377
2.8849	26.356
2.8833	26.341
2.8817	26.357
2.8801	26.351
2.8785	26.337
2.8769	26.326
2.8753	26.337
2.8737	26.366
2.8721	26.369
2.8705	26.343
2.8689	26.318
2.8673	26.308
2.8658	26.305
2.8642	26.309
2.8626	26.346
2.8610	26.358
2.8594	26.296
2.8579	26.295
2.8563	26.310
2.8547	26.303
2.8531	26.300
2.8516	26.302
2.8500	26.304
2.8484	26.308
2.8469	26.299
2.8453	26.340
2.8437	26.326
2.8422	26.307
2.8406	26.311
2.8391	26.305
2.8375	26.297
2.8360	26.316
2.8344	26.325
2.8329	26.314
2.8313	26.322
2.8298	26.327
2.8282	26.326
2.8267	26.315
2.8252	26.317
2.8236	26.336
2.8221	26.324
2.8205	26.322
2.8190	26.359
2.8175	26.403
2.8159	26.386
2.8144	26.390
2.8129	26.419
2.8114	26.446
2.8098	26.455
2.8083	26.466
2.8068	26.461
2.8053	26.458
2.8038	26.488
2.8022	26.523
2.8007	26.557
2.7992	26.557
2.7977	26.574
2.7962	26.588
2.7947	26.600
2.7932	26.606
2.7917	26.640
2.7902	26.678
2.7887	26.717
2.7872	26.749
2.7857	26.764
2.7842	26.780
2.7827	26.818
2.7812	26.856
2.7797	26.872
2.7782	26.894
2.7767	26.930
2.7752	26.948
2.7738	26.985
2.7723	27.037
2.7708	27.067
2.7693	27.107
2.7678	27.126
2.7664	27.149
2.7649	27.224
2.7634	27.285
2.7619	27.312
2.7605	27.348
2.7590	27.393
2.7575	27.426
2.7561	27.456
2.7546	27.482
2.7531	27.506
2.7517	27.534
2.7502	27.580
2.7488	27.651
2.7473	27.700
2.7458	27.725
2.7444	27.744
2.7429	27.788
2.7415	27.840
2.7400	27.864
2.7386	27.892
2.7371	27.934
2.7357	27.959
2.7343	27.976
2.7328	28.015
2.7314	28.041
2.7299	28.074
2.7285	28.096
2.7271	28.111
2.7256	28.124
2.7242	28.159
2.7228	28.182
2.7213	28.209
2.7199	28.241
2.7185	28.226
2.7171	28.220
2.7156	28.229
2.7142	28.282
2.7128	28.304
2.7114	28.307
2.7100	28.303
2.7085	28.314
2.7071	28.310
2.7057	28.315
2.7043	28.322
2.7029	28.338
2.7015	28.357
2.7001	28.341
2.6987	28.338
2.6973	28.330
2.6959	28.321
2.6945	28.301
2.6931	28.300
2.6917	28.294
2.6903	28.299
2.6889	28.297
2.6875	28.311
2.6861	28.320
2.6847	28.317
2.6833	28.315
2.6819	28.322
2.6805	28.329
2.6791	28.331
2.6778	28.318
2.6764	28.312
2.6750	28.313
2.6736	28.314
2.6722	28.341
2.6709	28.382
2.6695	28.408
2.6681	28.431
2.6667	28.454
2.6654	28.441
2.6640	28.419
2.6626	28.417
2.6613	28.424
2.6599	28.423
2.6585	28.400
2.6572	28.413
2.6558	28.432
2.6545	28.426
2.6531	28.420
2.6517	28.416
2.6504	28.412
2.6490	28.406
2.6477	28.399
2.6463	28.367
2.6450	28.370
2.6436	28.374
2.6423	28.385
2.6409	28.403
2.6396	28.398
2.6382	28.389
2.6369	28.376
2.6356	28.357
2.6342	28.346
2.6329	28.328
2.6315	28.302
2.6302	28.310
2.6289	28.320
2.6275	28.305
2.6262	28.308
2.6249	28.322
2.6236	28.312
2.6222	28.297
2.6209	28.286
2.6196	28.258
2.6183	28.238
2.6169	28.263
2.6156	28.277
2.6143	28.251
2.6130	28.234
2.6117	28.228
2.6103	28.220
2.6090	28.211
2.6077	28.197
2.6064	28.186
2.6051	28.187
2.6038	28.186
2.6025	28.177
2.6012	28.169
2.5999	28.174
2.5986	28.176
2.5973	28.178
2.5960	28.175
2.5947	28.183
2.5934	28.157
2.5921	28.152
2.5908	28.141
2.5895	28.117
2.5882	28.102
2.5869	28.101
2.5856	28.111
2.5843	28.105
2.5830	28.083
2.5817	28.059
2.5805	28.075
2.5792	28.079
2.5779	28.055
2.5766	28.054
2.5753	28.059
2.5741	28.063
2.5728	28.045
2.5715	28.029
2.5702	28.032
2.5690	28.000
2.5677	27.967
2.5664	27.952
2.5651	27.952
2.5639	27.968
2.5626	27.972
2.5613	27.967
2.5601	27.944
2.5588	27.942
2.5575	27.955
2.5563	27.940
2.5550	27.916
2.5538	27.898
2.5525	27.907
2.5513	27.893
2.5500	27.872
2.5487	27.874
2.5475	27.886
2.5462	27.888
2.5450	27.862
2.5437	27.840
2.5425	27.834
2.5413	27.813
2.5400	27.808
2.5388	27.830
2.5375	27.838
2.5363	27.814
2.5350	27.775
2.5338	27.771
2.5326	27.786
2.5313	27.796
2.5301	27.759
2.5289	27.751
2.5276	27.758
2.5264	27.738
2.5252	27.731
2.5239	27.738
2.5227	27.724
2.5215	27.712
2.5202	27.693
2.5190	27.704
2.5178	27.688
2.5166	27.670
2.5154	27.679
2.5141	27.663
2.5129	27.680
2.5117	27.673
2.5105	27.650
2.5093	27.644
2.5081	27.610
2.5068	27.601
2.5056	27.625
2.5044	27.637
2.5032	27.617
2.5020	27.596
2.5008	27.585
2.4996	27.582
2.4984	27.583
2.4972	27.573
2.4960	27.540
2.4948	27.531
2.4936	27.512
2.4924	27.516
2.4912	27.523
2.4900	27.502
2.4888	27.474
2.4876	27.455
2.4864	27.465
2.4852	27.483
2.4840	27.480
2.4828	27.471
2.4816	27.467
2.4805	27.439
2.4793	27.413
2.4781	27.408
2.4769	27.397
2.4757	27.400
2.4745	27.420
2.4734	27.407
2.4722	27.389
2.4710	27.383
2.4698	27.377
2.4686	27.381
2.4675	27.366
2.4663	27.353
2.4651	27.328
2.4640	27.311
2.4628	27.337
2.4616	27.341
2.4604	27.297
2.4593	27.283
2.4581	27.292
2.4569	27.282
2.4558	27.293
2.4546	27.315
2.4535	27.269
2.4523	27.232
2.4511	27.257
2.4500	27.273
2.4488	27.272
2.4477	27.267
2.4465	27.254
2.4454	27.233
2.4442	27.210
2.4431	27.214
2.4419	27.227
2.4408	27.208
2.4396	27.175
2.4385	27.169
2.4373	27.179
2.4362	27.184
2.4350	27.154
2.4339	27.133
2.4327	27.167
2.4316	27.165
2.4305	27.135
2.4293	27.130
2.4282	27.117
2.4270	27.104
2.4259	27.098
2.4248	27.087
2.4236	27.083
2.4225	27.078
2.4214	27.066
2.4202	27.057
2.4191	27.056
2.4180	27.063
2.4169	27.050
2.4157	27.045
2.4146	27.029
2.4135	27.008
2.4124	27.005
2.4112	26.987
2.4101	26.976
2.4090	26.986
2.4079	27.000
2.4068	26.986
2.4056	26.958
2.4045	26.937
2.4034	26.924
2.4023	26.912
2.4012	26.925
2.4001	26.932
2.3990	26.920
2.3979	26.906
2.3967	26.901
2.3956	26.918
2.3945	26.896
2.3934	26.880
2.3923	26.882
2.3912	26.881
2.3901	26.882
2.3890	26.866
2.3879	26.847
2.3868	26.828
2.3857	26.816
2.3846	26.810
2.3835	26.796
2.3824	26.803
2.3813	26.814
2.3802	26.801
2.3791	26.796
2.3781	26.767
2.3770	26.755
2.3759	26.756
2.3748	26.730
2.3737	26.707
2.3726	26.711
2.3715	26.735
2.3704	26.708
2.3694	26.693
2.3683	26.707
2.3672	26.706
2.3661	26.701
2.3650	26.690
2.3640	26.679
2.3629	26.673
2.3618	26.672
2.3607	26.651
2.3597	26.626
2.3586	26.615
2.3575	26.599
2.3564	26.600
2.3554	26.612
2.3543	26.603
2.3532	26.591
2.3522	26.589
2.3511	26.601
2.3500	26.590
2.3490	26.562
2.3479	26.547
2.3468	26.546
2.3458	26.530
2.3447	26.517
2.3436	26.547
2.3426	26.552
2.3415	26.515
2.3405	26.497
2.3394	26.496
2.3384	26.505
2.3373	26.500
2.3363	26.467
2.3352	26.447
2.3342	26.449
2.3331	26.446
2.3321	26.433
2.3310	26.444
2.3300	26.443
2.3289	26.410
2.3279	26.406
2.3268	26.420
2.3258	26.412
2.3247	26.402
2.3237	26.414
2.3226	26.416
2.3216	26.403
2.3206	26.381
2.3195	26.379
2.3185	26.376
2.3175	26.346
2.3164	26.321
2.3154	26.332
2.3144	26.359
2.3133	26.328
2.3123	26.312
2.3113	26.308
2.3102	26.305
2.3092	26.322
2.3082	26.305
2.3071	26.252
2.3061	26.277
2.3051	26.306
2.3041	26.295
2.3030	26.294
2.3020	26.291
2.3010	26.240
2.3000	26.213
2.2990	26.228
2.2979	26.237
2.2969	26.230
2.2959	26.225
2.2949	26.191
2.2939	26.177
2.2929	26.176
2.2918	26.164
2.2908	26.181
2.2898	26.183
2.2888	26.142
2.2878	26.116
2.2868	26.104
2.2858	26.121
2.2848	26.118
2.2838	26.104
2.2828	26.080
2.2818	26.074
2.2808	26.085
2.2798	26.058
2.2787	26.042
2.2777	26.050
2.2767	26.085
2.2757	26.081
2.2747	26.073
2.2738	26.042
2.2728	26.004
2.2718	26.001
2.2708	25.998
2.2698	26.000
2.2688	25.998
2.2678	26.019
2.2668	26.004
2.2658	25.993
2.2648	25.984
2.2638	25.944
2.2628	25.925
2.2618	25.946
2.2609	25.949
2.2599	25.906
2.2589	25.910
2.2579	25.928
2.2569	25.912
2.2559	25.895
2.2550	25.874
2.2540	25.875
2.2530	25.886
2.2520	25.852
2.2510	25.857
2.2501	25.878
2.2491	25.842
2.2481	25.807
2.2471	25.834
2.2462	25.855
2.2452	25.847
2.2442	25.844
2.2433	25.826
2.2423	25.781
2.2413	25.781
2.2403	25.810
2.2394	25.801
2.2384	25.763
2.2374	25.754
2.2365	25.774
2.2355	25.759
2.2345	25.739
2.2336	25.754
2.2326	25.746
2.2317	25.716
2.2307	25.717
2.2297	25.701
2.2288	25.688
2.2278	25.673
2.2269	25.660
2.2259	25.683
2.2250	25.696
2.2240	25.686
2.2231	25.645
2.2221	25.624
2.2211	25.670
2.2202	25.640
2.2192	25.586
2.2183	25.612
2.2173	25.594
2.2164	25.590
2.2155	25.607
2.2145	25.571
2.2136	25.561
2.2126	25.583
2.2117	25.564
2.2107	25.568
2.2098	25.585
2.2088	25.582
2.2079	25.554
2.2070	25.552
2.2060	25.558
2.2051	25.548
2.2041	25.526
2.2032	25.516
2.2023	25.510
2.2013	25.500
2.2004	25.482
2.1995	25.480
2.1985	25.483
2.1976	25.480
2.1967	25.440
2.1957	25.439
2.1948	25.491
2.1939	25.484
2.1930	25.431
2.1920	25.424
2.1911	25.407
2.1902	25.404
2.1893	25.414
2.1883	25.426
2.1874	25.421
2.1865	25.406
2.1856	25.389
2.1846	25.390
2.1837	25.370
2.1828	25.360
2.1819	25.370
2.1810	25.400
2.1800	25.357
2.1791	25.339
2.1782	25.345
2.1773	25.338
2.1764	25.316
2.1755	25.271
2.1746	25.289
2.1736	25.297
2.1727	25.268
2.1718	25.290
2.1709	25.340
2.1700	25.305
2.1691	25.284
2.1682	25.243
2.1673	25.197
2.1664	25.211
2.1655	25.218
2.1646	25.210
2.1637	25.277
2.1628	25.272
2.1619	25.213
2.1610	25.204
2.1601	25.213
2.1592	25.211
2.1583	25.205
2.1574	25.178
2.1565	25.152
2.1556	25.162
2.1547	25.165
2.1538	25.141
2.1529	25.119
2.1520	25.132
2.1511	25.130
2.1502	25.134
2.1493	25.128
2.1484	25.120
2.1475	25.108
2.1466	25.069
2.1458	25.049
2.1449	25.062
2.1440	25.071
2.1431	25.084
2.1422	25.084
2.1413	25.066
2.1404	25.042
2.1396	25.026
2.1387	25.030
2.1378	25.037
2.1369	25.026
2.1360	25.027
2.1352	25.010
2.1343	25.003
2.1334	25.009
2.1325	25.001
2.1316	24.996
2.1308	24.984
2.1299	24.950
2.1290	24.937
2.1281	24.935
2.1273	24.938
2.1264	24.938
2.1255	24.899
2.1247	24.885
2.1238	24.875
2.1229	24.899
2.1220	24.915
2.1212	24.932
2.1203	24.937
2.1194	24.912
2.1186	24.889
2.1177	24.874
2.1168	24.911
2.1160	24.915
2.1151	24.891
2.1143	24.902
2.1134	24.891
2.1125	24.818
2.1117	24.788
2.1108	24.779
2.1100	24.808
2.1091	24.816
2.1082	24.798
2.1074	24.786
2.1065	24.780
2.1057	24.807
2.1048	24.813
2.1040	24.810
2.1031	24.778
2.1023	24.750
2.1014	24.745
2.1005	24.736
2.0997	24.723
2.0988	24.752
2.0980	24.772
2.0971	24.713
2.0963	24.683
2.0955	24.682
2.0946	24.692
2.0938	24.675
2.0929	24.652
2.0921	24.664
2.0912	24.715
2.0904	24.697
2.0895	24.666
2.0887	24.642
2.0879	24.640
2.0870	24.657
2.0862	24.662
2.0853	24.599
2.0845	24.625
2.0837	24.612
2.0828	24.614
2.0820	24.634
2.0812	24.619
2.0803	24.577
2.0795	24.572

