Name: Fossiliferous Limestone 
Type:  Rocks
Class:  Sedimentary
Subclass: Limestone
Particle Size:  500 - 1500 Micrometers
Sample No.:  limestone.1
Owner:  JHU
Wavelength Range:  All
Origin:  Sample No. 355,  from the Hunt and Salisbury Collection at 
the U.S. Geological Survey, Denver, Co.
Description: Sample consists of a homogeneous microcrystalline 
carbonate matrix, with scattered flecks of reddish brown material 
and abundant fossils (primarily small bivalves) with recrystallized 
calcite. Some bivalves still show laminar structure. Very minor 
quartz was also noted in this section.

Measurement:  Directional (10 Degree) Hemispherical Reflectance
First Column:  X
Second Column:  Y  
X Units:  Wavelength (micrometers)
Y Units:  Reflectance (percent)
First X Value:  14.0112
Last X Value:  0.4
Number of X Values:  2844
Additional Information:  None 

14.0112	1.7906
13.9734	1.3437
13.9359	1.2604
13.8985	1.4434
13.8614	1.6994
13.8244	1.9595
13.7876	2.0746
13.7511	2.121
13.7147	2.3985
13.6785	2.5201
13.6425	2.5064
13.6067	2.4998
13.5711	2.5888
13.5356	2.7234
13.5004	2.7967
13.4653	2.8293
13.4304	2.868
13.3957	2.8965
13.3612	2.9003
13.3269	2.9694
13.2927	3.0393
13.2587	2.9594
13.2249	2.9307
13.1912	2.978
13.1577	2.9878
13.1244	2.8673
13.0913	2.8278
13.0583	2.8699
13.0255	2.8336
12.9929	2.7931
12.9604	2.8065
12.9281	2.8144
12.8959	2.8003
12.8639	2.8235
12.8321	2.8103
12.8004	2.8417
12.7688	2.8505
12.7375	2.8792
12.7063	2.8706
12.6752	2.8447
12.6443	2.8783
12.6135	2.9565
12.5829	2.9783
12.5524	2.9118
12.5221	2.8744
12.4919	2.9359
12.4619	2.9616
12.432	2.9752
12.4023	3.035
12.3727	3.0833
12.3432	3.1111
12.3139	3.1629
12.2847	3.1548
12.2557	3.1397
12.2268	3.1747
12.198	3.2472
12.1694	3.2371
12.1409	3.2058
12.1125	3.2252
12.0843	3.235
12.0562	3.2562
12.0282	3.2458
12.0003	3.3022
11.9726	3.351
11.945	3.3183
11.9176	3.3489
11.8903	3.3802
11.8631	3.3678
11.836	3.2888
11.809	3.0905
11.7822	2.9618
11.7555	3.1732
11.7289	3.4326
11.7024	3.658
11.676	3.7977
11.6498	3.9288
11.6237	4.1074
11.5977	4.259
11.5718	4.3875
11.546	4.4636
11.5203	4.454
11.4948	4.4074
11.4694	4.5327
11.444	4.8258
11.4188	5.189
11.3937	5.6219
11.3688	6.096
11.3439	6.3989
11.3191	6.7428
11.2944	7.8878
11.2699	9.5598
11.2455	10.0613
11.2211	9.4064
11.1969	8.6927
11.1727	8.2245
11.1487	7.8352
11.1248	7.434
11.101	7.0648
11.0773	6.7103
11.0536	6.4374
11.0301	6.1757
11.0067	5.9182
10.9834	5.7252
10.9602	5.5709
10.937	5.4728
10.914	5.4194
10.8911	5.3173
10.8682	5.2753
10.8455	5.194
10.8229	5.0931
10.8003	5.0029
10.7779	4.8969
10.7555	4.8059
10.7332	4.7169
10.7111	4.6419
10.689	4.5684
10.667	4.5356
10.6451	4.5151
10.6233	4.532
10.6015	4.5703
10.5799	4.5151
10.5584	4.4289
10.5369	4.4067
10.5155	4.3992
10.4942	4.3552
10.473	4.2865
10.4519	4.1925
10.4309	4.1416
10.4099	4.1042
10.3891	4.0427
10.3683	3.9882
10.3476	3.9243
10.327	3.8312
10.3065	3.759
10.286	3.7193
10.2656	3.6288
10.2454	3.5377
10.2251	3.4965
10.205	3.435
10.185	3.3817
10.165	3.3666
10.1451	3.3678
10.1253	3.3453
10.1056	3.3001
10.0859	3.2922
10.0663	3.2599
10.0468	3.2177
10.0274	3.2137
10.008	3.2501
9.9887	3.2113
9.9695	3.2053
9.9504	3.2285
9.9313	3.2149
9.9123	3.2118
9.8934	3.2228
9.8746	3.1774
9.8558	3.1711
9.8371	3.1898
9.8185	3.1869
9.7999	3.1855
9.7814	3.2275
9.763	3.2343
9.7447	3.2161
9.7264	3.2795
9.7082	3.324
9.69	3.2901
9.6719	3.2965
9.6539	3.3027
9.636	3.3505
9.6181	3.4116
9.6003	3.4486
9.5825	3.446
9.5649	3.4815
9.5472	3.5535
9.5297	3.5549
9.5122	3.5752
9.4948	3.6393
9.4774	3.6549
9.4601	3.6285
9.4429	3.6478
9.4257	3.6863
9.4086	3.7374
9.3916	3.7685
9.3746	3.7977
9.3577	3.8559
9.3408	3.9233
9.324	3.9617
9.3073	3.9999
9.2906	4.0662
9.274	4.1253
9.2574	4.12
9.2409	4.0973
9.2245	4.0834
9.2081	4.1205
9.1918	4.1511
9.1755	4.2229
9.1593	4.2707
9.1431	4.2744
9.127	4.3145
9.111	4.3449
9.095	4.3502
9.0791	4.3459
9.0632	4.3669
9.0474	4.404
9.0316	4.432
9.0159	4.4514
9.0003	4.4238
8.9847	4.417
8.9691	4.4351
8.9536	4.466
8.9382	4.4772
8.9228	4.4514
8.9075	4.4708
8.8922	4.5119
8.877	4.5121
8.8618	4.5428
8.8467	4.6409
8.8316	4.7091
8.8166	4.7262
8.8016	4.7609
8.7867	4.8485
8.7718	4.9229
8.757	4.9314
8.7422	5.0089
8.7275	5.0668
8.7129	5.067
8.6982	5.0505
8.6837	5.0833
8.6692	5.1153
8.6547	5.1055
8.6403	5.06
8.6259	4.9911
8.6116	4.9156
8.5973	4.872
8.583	4.9608
8.5688	5.0972
8.5547	5.1794
8.5406	5.2363
8.5266	5.3331
8.5126	5.3799
8.4986	5.4209
8.4847	5.4838
8.4708	5.4931
8.457	5.5404
8.4432	5.6484
8.4295	5.7429
8.4158	5.8082
8.4022	5.8991
8.3886	6.0053
8.375	6.1509
8.3615	6.298
8.3481	6.4117
8.3347	6.5219
8.3213	6.6442
8.3079	6.7265
8.2946	6.82
8.2814	6.9274
8.2682	6.9903
8.255	7.0784
8.2419	7.1595
8.2288	7.226
8.2158	7.3057
8.2028	7.3998
8.1898	7.4438
8.1769	7.4747
8.164	7.4285
8.1512	7.3988
8.1384	7.411
8.1256	7.4315
8.1129	7.4158
8.1002	7.3526
8.0876	7.3141
8.075	7.2954
8.0624	7.2926
8.0499	7.3284
8.0374	7.3923
8.025	7.4775
8.0126	7.5653
8.0002	7.634
7.9879	7.6551
7.9756	7.6513
7.9634	7.6752
7.9512	7.6639
7.939	7.6156
7.9268	7.5328
7.9147	7.4823
7.9027	7.4694
7.8906	7.4624
7.8786	7.4873
7.8667	7.5728
7.8548	7.6213
7.8429	7.639
7.831	7.6247
7.8192	7.5972
7.8075	7.5522
7.7957	7.5337
7.784	7.5492
7.7723	7.601
7.7607	7.6337
7.7491	7.6038
7.7375	7.5925
7.726	7.6354
7.7145	7.6285
7.7031	7.5529
7.6916	7.4687
7.6802	7.3923
7.6689	7.3241
7.6575	7.2641
7.6462	7.1868
7.635	7.1165
7.6238	7.0215
7.6126	6.9507
7.6014	6.9222
7.5903	6.9004
7.5792	6.9081
7.5681	6.9559
7.5571	6.9751
7.5461	6.9598
7.5351	6.9621
7.5242	6.9787
7.5133	6.9993
7.5024	7.0038
7.4916	7.0131
7.4807	7.0353
7.47	7.0157
7.4592	6.9698
7.4485	6.937
7.4378	6.9064
7.4272	6.9105
7.4165	6.9107
7.4059	6.8806
7.3954	6.859
7.3848	6.8426
7.3743	6.7916
7.3639	6.6944
7.3534	6.5841
7.343	6.4698
7.3326	6.3501
7.3223	6.2497
7.3119	6.1446
7.3016	6.0113
7.2914	5.8697
7.2811	5.7407
7.2709	5.6659
7.2607	5.6073
7.2506	5.5606
7.2404	5.5457
7.2303	5.4878
7.2203	5.4309
7.2102	5.43
7.2002	5.427
7.1902	5.4938
7.1803	5.6068
7.1703	5.7032
7.1604	5.8209
7.1506	5.9554
7.1407	6.0729
7.1309	6.2073
7.1211	6.4623
7.1113	6.8334
7.1016	7.1792
7.0919	7.4354
7.0822	7.588
7.0725	7.6364
7.0629	7.6194
7.0533	7.5773
7.0437	7.5404
7.0341	7.5153
7.0246	7.5223
7.0151	7.5402
7.0056	7.5244
6.9962	7.4906
6.9867	7.4624
6.9773	7.433
6.9679	7.4076
6.9586	7.3973
6.9493	7.4131
6.94	7.4277
6.9307	7.4847
6.9214	7.5339
6.9122	7.5472
6.903	7.5988
6.8938	7.6629
6.8847	7.7228
6.8755	7.761
6.8664	7.7887
6.8573	7.8563
6.8483	7.9156
6.8393	7.9986
6.8302	8.0654
6.8213	8.118
6.8123	8.2055
6.8034	8.2879
6.7944	8.3529
6.7855	8.4042
6.7767	8.4719
6.7678	8.5597
6.759	8.6786
6.7502	8.7812
6.7414	8.8841
6.7327	8.9707
6.7239	9.0815
6.7152	9.2171
6.7065	9.3734
6.6979	9.5241
6.6892	9.6506
6.6806	9.7806
6.672	9.9569
6.6634	10.1715
6.6549	10.3848
6.6464	10.557
6.6378	10.7345
6.6294	10.9963
6.6209	11.318
6.6124	11.6456
6.604	11.9473
6.5956	12.248
6.5872	12.5926
6.5789	12.8725
6.5705	13.1273
6.5622	13.4037
6.5539	13.646
6.5456	13.8786
6.5374	14.1217
6.5292	14.3332
6.5209	14.494
6.5128	14.6555
6.5046	14.7765
6.4964	14.8497
6.4883	14.9818
6.4802	15.1782
6.4721	15.3228
6.464	15.4077
6.456	15.3823
6.448	15.239
6.4399	14.954
6.432	14.4394
6.424	13.7834
6.416	12.9931
6.4081	12.2818
6.4002	11.6516
6.3923	10.9845
6.3844	10.3556
6.3766	9.7622
6.3687	9.1961
6.3609	8.6482
6.3531	8.0594
6.3454	7.4237
6.3376	6.749
6.3299	6.1312
6.3221	5.6599
6.3144	5.3012
6.3068	4.9988
6.2991	4.7696
6.2914	4.6231
6.2838	4.5791
6.2762	4.578
6.2686	4.5038
6.2611	4.4033
6.2535	4.3318
6.246	4.2047
6.2385	4.0169
6.231	3.8616
6.2235	3.7399
6.216	3.6011
6.2086	3.458
6.2011	3.3402
6.1937	3.2197
6.1863	3.0993
6.179	3.0323
6.1716	2.9694
6.1643	2.8761
6.157	2.8421
6.1496	2.7967
6.1424	2.7161
6.1351	2.6533
6.1278	2.6155
6.1206	2.5818
6.1134	2.5225
6.1062	2.4825
6.099	2.4469
6.0918	2.3984
6.0847	2.3825
6.0776	2.3693
6.0704	2.3406
6.0633	2.3084
6.0563	2.2646
6.0492	2.2425
6.0421	2.2364
6.0351	2.2787
6.0281	2.3212
6.0211	2.3101
6.0141	2.305
6.0071	2.288
6.0002	2.3057
5.9932	2.3277
5.9863	2.2971
5.9794	2.2762
5.9725	2.2734
5.9657	2.2691
5.9588	2.2581
5.952	2.2581
5.9451	2.249
5.9383	2.2294
5.9315	2.2407
5.9247	2.2581
5.918	2.2478
5.9112	2.2284
5.9045	2.2507
5.8978	2.2593
5.8911	2.2402
5.8844	2.2299
5.8777	2.2274
5.8711	2.2009
5.8644	2.1935
5.8578	2.1952
5.8512	2.155
5.8446	2.1502
5.838	2.1187
5.8314	2.0629
5.8249	2.0643
5.8184	2.0526
5.8118	2.0143
5.8053	2.0052
5.7988	2.0052
5.7923	1.9533
5.7859	1.9129
5.7794	1.9296
5.773	1.9042
5.7666	1.8588
5.7602	1.8641
5.7538	1.8865
5.7474	1.8753
5.741	1.8853
5.7347	1.8913
5.7283	1.9117
5.722	1.9521
5.7157	1.9545
5.7094	1.9617
5.7031	1.988
5.6969	1.9932
5.6906	1.9985
5.6844	2.0375
5.6782	2.0775
5.6719	2.0949
5.6657	2.1131
5.6596	2.1517
5.6534	2.1799
5.6472	2.1846
5.6411	2.1818
5.6349	2.1743
5.6288	2.1478
5.6227	2.1043
5.6166	2.0365
5.6106	1.943
5.6045	1.8536
5.5984	1.7482
5.5924	1.6298
5.5864	1.5027
5.5804	1.3807
5.5744	1.3203
5.5684	1.2817
5.5624	1.223
5.5564	1.2248
5.5505	1.32
5.5445	1.4432
5.5386	1.6408
5.5327	1.8942
5.5268	2.094
5.5209	2.2653
5.5151	2.4476
5.5092	2.6185
5.5033	2.7594
5.4975	2.9131
5.4917	3.0371
5.4859	3.1278
5.4801	3.2396
5.4743	3.3835
5.4685	3.5025
5.4628	3.6235
5.457	3.746
5.4513	3.885
5.4455	4.0155
5.4398	4.1526
5.4341	4.2875
5.4284	4.4074
5.4228	4.5476
5.4171	4.6774
5.4114	4.827
5.4058	4.9571
5.4002	5.0842
5.3945	5.2041
5.3889	5.2849
5.3833	5.3694
5.3778	5.4656
5.3722	5.5591
5.3666	5.6566
5.3611	5.7364
5.3555	5.8455
5.35	5.9577
5.3445	6.0561
5.339	6.1889
5.3335	6.347
5.328	6.4819
5.3225	6.6263
5.3171	6.7918
5.3116	6.9505
5.3062	7.0861
5.3008	7.2217
5.2954	7.372
5.29	7.5469
5.2846	7.7055
5.2792	7.8239
5.2738	7.9773
5.2684	8.1512
5.2631	8.3317
5.2578	8.5343
5.2524	8.7209
5.2471	8.9135
5.2418	9.1284
5.2365	9.3475
5.2312	9.523
5.226	9.7132
5.2207	9.8892
5.2154	10.0653
5.2102	10.2273
5.205	10.3692
5.1998	10.5319
5.1945	10.6747
5.1893	10.7749
5.1842	10.8907
5.179	10.9932
5.1738	11.0421
5.1686	11.0786
5.1635	11.1867
5.1584	11.3339
5.1532	11.4051
5.1481	11.4586
5.143	11.5135
5.1379	11.5729
5.1328	11.6234
5.1277	11.6312
5.1227	11.527
5.1176	11.2245
5.1126	10.5369
5.1075	9.4767
5.1025	8.4616
5.0975	8.218
5.0925	9.1614
5.0875	10.4776
5.0825	11.4178
5.0775	11.9717
5.0726	12.2672
5.0676	12.4026
5.0627	12.4935
5.0577	12.5808
5.0528	12.6338
5.0479	12.6426
5.043	12.6285
5.038	12.6459
5.0332	12.6751
5.0283	12.6507
5.0234	12.6361
5.0185	12.6603
5.0137	12.672
5.0088	12.6852
5.004	12.6768
4.9992	12.6794
4.9944	12.7143
4.9896	12.7428
4.9848	12.7807
4.98	12.8371
4.9752	12.8943
4.9704	12.9354
4.9657	13.0116
4.9609	13.074
4.9562	13.114
4.9514	13.1472
4.9467	13.1747
4.942	13.2068
4.9373	13.2232
4.9326	13.23
4.9279	13.268
4.9232	13.325
4.9186	13.3977
4.9139	13.4828
4.9092	13.5764
4.9046	13.6635
4.9	13.7618
4.8953	13.8669
4.8907	13.9693
4.8861	14.0228
4.8815	14.1033
4.8769	14.1989
4.8723	14.2284
4.8678	14.2542
4.8632	14.3148
4.8586	14.3624
4.8541	14.4179
4.8495	14.4619
4.845	14.4799
4.8405	14.5203
4.836	14.5672
4.8315	14.6033
4.827	14.6225
4.8225	14.6373
4.818	14.6731
4.8135	14.6645
4.809	14.6529
4.8046	14.6645
4.8001	14.6581
4.7957	14.6545
4.7913	14.6435
4.7868	14.6461
4.7824	14.6275
4.778	14.544
4.7736	14.453
4.7692	14.3252
4.7648	14.1095
4.7605	13.8652
4.7561	13.6343
4.7517	13.4137
4.7474	13.1714
4.7431	12.8421
4.7387	12.4406
4.7344	12.0241
4.7301	11.5899
4.7258	11.0516
4.7215	10.3878
4.7172	9.6583
4.7129	8.9351
4.7086	8.2671
4.7043	7.6689
4.7	7.1825
4.6958	6.8104
4.6915	6.5393
4.6873	6.3496
4.6831	6.1972
4.6788	6.0857
4.6746	6.0317
4.6704	6.0343
4.6662	6.0482
4.662	6.124
4.6578	6.2738
4.6536	6.4616
4.6495	6.7387
4.6453	7.0849
4.6411	7.5002
4.637	7.9969
4.6328	8.4683
4.6287	8.8927
4.6246	9.2841
4.6205	9.6626
4.6163	10.0347
4.6122	10.3323
4.6081	10.5428
4.604	10.7163
4.6	10.8716
4.5959	11.0288
4.5918	11.1752
4.5877	11.2678
4.5837	11.3331
4.5796	11.3995
4.5756	11.4667
4.5716	11.5255
4.5675	11.5628
4.5635	11.6015
4.5595	11.6305
4.5555	11.6689
4.5515	11.6985
4.5475	11.7071
4.5435	11.7368
4.5395	11.7781
4.5356	11.8018
4.5316	11.8035
4.5276	11.8327
4.5237	11.8832
4.5197	11.8935
4.5158	11.9129
4.5119	11.969
4.508	12.0272
4.504	12.0983
4.5001	12.214
4.4962	12.3378
4.4923	12.5196
4.4884	12.7438
4.4846	12.9752
4.4807	13.2151
4.4768	13.4817
4.473	13.7824
4.4691	14.0434
4.4652	14.2724
4.4614	14.5014
4.4576	14.7148
4.4537	14.9133
4.4499	15.1333
4.4461	15.368
4.4423	15.6206
4.4385	15.88
4.4347	16.1317
4.4309	16.3599
4.4271	16.5739
4.4233	16.7767
4.4196	16.9349
4.4158	17.0839
4.412	17.2179
4.4083	17.3514
4.4045	17.4588
4.4008	17.5157
4.3971	17.5715
4.3934	17.6586
4.3896	17.7481
4.3859	17.8507
4.3822	17.939
4.3785	17.9519
4.3748	17.9368
4.3711	17.8928
4.3674	17.7957
4.3638	17.6469
4.3601	17.4337
4.3564	17.2007
4.3528	16.9774
4.3491	16.7724
4.3455	16.6841
4.3418	16.6619
4.3382	16.6245
4.3346	16.5513
4.331	16.5178
4.3273	16.5264
4.3237	16.5341
4.3201	16.4917
4.3165	16.4104
4.3129	16.3365
4.3094	16.2949
4.3058	16.3259
4.3022	16.3798
4.2986	16.3875
4.2951	16.2903
4.2915	16.0401
4.288	15.607
4.2844	15.1289
4.2809	14.7775
4.2774	14.4691
4.2738	14.221
4.2703	14.1013
4.2668	14.1494
4.2633	14.3784
4.2598	14.7172
4.2563	15.0409
4.2528	15.3039
4.2493	15.49
4.2458	15.6522
4.2424	15.7725
4.2389	15.8293
4.2354	15.8882
4.232	15.9137
4.2285	15.8787
4.2251	15.8692
4.2216	15.8929
4.2182	15.9199
4.2148	15.9297
4.2113	15.9149
4.2079	15.8879
4.2045	15.841
4.2011	15.7838
4.1977	15.6924
4.1943	15.5806
4.1909	15.4804
4.1875	15.3678
4.1841	15.272
4.1808	15.1883
4.1774	15.0347
4.174	14.8821
4.1707	14.7586
4.1673	14.6071
4.164	14.4572
4.1606	14.3059
4.1573	14.1423
4.154	13.953
4.1506	13.7614
4.1473	13.5552
4.144	13.3324
4.1407	13.0931
4.1374	12.8265
4.1341	12.5722
4.1308	12.3452
4.1275	12.1174
4.1242	11.8657
4.1209	11.6002
4.1177	11.365
4.1144	11.1147
4.1111	10.8723
4.1079	10.6316
4.1046	10.3904
4.1014	10.2039
4.0981	10.006
4.0949	9.7622
4.0917	9.5466
4.0884	9.3255
4.0852	9.0856
4.082	8.842
4.0788	8.613
4.0756	8.3566
4.0724	8.0661
4.0692	7.8237
4.066	7.6055
4.0628	7.3976
4.0596	7.1719
4.0565	6.9115
4.0533	6.6449
4.0501	6.363
4.047	6.0345
4.0438	5.6946
4.0406	5.3816
4.0375	5.1048
4.0344	4.8557
4.0312	4.6454
4.0281	4.4918
4.025	4.3189
4.0218	4.166
4.0187	4.0495
4.0156	3.9069
4.0125	3.7482
4.0094	3.63
4.0063	3.5113
4.0032	3.3644
4.0001	3.2262
3.997	3.112
3.994	2.9946
3.9909	2.9027
3.9878	2.824
3.9847	2.7548
3.9817	2.6871
3.9786	2.6639
3.9756	2.6598
3.9725	2.6653
3.9695	2.6598
3.9665	2.693
3.9634	2.7687
3.9604	2.79
3.9574	2.806
3.9544	2.894
3.9513	3.0051
3.9483	3.0917
3.9453	3.1785
3.9423	3.3039
3.9393	3.4374
3.9363	3.5266
3.9333	3.599
3.9304	3.6654
3.9274	3.6918
3.9244	3.712
3.9214	3.7527
3.9185	3.7932
3.9155	3.8262
3.9126	3.8422
3.9096	3.8533
3.9067	3.874
3.9037	3.8956
3.9008	3.9444
3.8979	3.9906
3.8949	4.0035
3.892	4.0018
3.8891	4.0272
3.8862	4.0365
3.8833	4.0334
3.8804	4.0399
3.8775	4.0624
3.8746	4.0478
3.8717	4.0401
3.8688	4.0693
3.8659	4.0752
3.863	4.0729
3.8601	4.1001
3.8573	4.1439
3.8544	4.176
3.8515	4.1927
3.8487	4.215
3.8458	4.2389
3.843	4.2628
3.8401	4.3097
3.8373	4.376
3.8344	4.4772
3.8316	4.6215
3.8288	4.7584
3.8259	4.8577
3.8231	5.0004
3.8203	5.1996
3.8175	5.3709
3.8147	5.5467
3.8119	5.7891
3.8091	6.0515
3.8063	6.3607
3.8035	6.7475
3.8007	7.2021
3.7979	7.7595
3.7951	8.413
3.7924	9.1183
3.7896	9.8442
3.7868	10.529
3.7841	11.1015
3.7813	11.5494
3.7785	11.9552
3.7758	12.3066
3.773	12.6208
3.7703	12.9072
3.7676	13.1689
3.7648	13.3759
3.7621	13.5738
3.7594	13.7774
3.7566	13.919
3.7539	13.9956
3.7512	14.1191
3.7485	14.2382
3.7458	14.348
3.7431	14.477
3.7404	14.6828
3.7377	14.9022
3.735	15.0687
3.7323	15.2115
3.7296	15.3507
3.7269	15.4744
3.7242	15.562
3.7216	15.6596
3.7189	15.7333
3.7162	15.7934
3.7136	15.8249
3.7109	15.8678
3.7083	15.928
3.7056	15.9687
3.703	15.969
3.7003	16.0025
3.6977	16.0565
3.695	16.045
3.6924	16.0314
3.6898	16.0537
3.6872	16.0673
3.6845	16.0419
3.6819	16.0248
3.6793	16.0077
3.6767	15.9755
3.6741	15.9154
3.6715	15.8551
3.6689	15.8178
3.6663	15.7678
3.6637	15.7275
3.6611	15.6709
3.6585	15.5768
3.656	15.4619
3.6534	15.4196
3.6508	15.3972
3.6482	15.2871
3.6457	15.1814
3.6431	15.1402
3.6406	15.0418
3.638	14.9249
3.6355	14.8536
3.6329	14.7313
3.6304	14.6127
3.6278	14.515
3.6253	14.4109
3.6227	14.3141
3.6202	14.1858
3.6177	14.0618
3.6152	13.9599
3.6127	13.8125
3.6101	13.6391
3.6076	13.4876
3.6051	13.3333
3.6026	13.1299
3.6001	12.9148
3.5976	12.6929
3.5951	12.4389
3.5926	12.1634
3.5901	11.8882
3.5876	11.6013
3.5852	11.2893
3.5827	10.9178
3.5802	10.4995
3.5777	10.1199
3.5753	9.7983
3.5728	9.5528
3.5704	9.4337
3.5679	9.4193
3.5654	9.4433
3.563	9.4365
3.5605	9.3784
3.5581	9.2483
3.5557	9.1165
3.5532	8.9498
3.5508	8.743
3.5484	8.5197
3.5459	8.2731
3.5435	8.0294
3.5411	7.7517
3.5387	7.4345
3.5363	7.1447
3.5338	6.8559
3.5314	6.531
3.529	6.1819
3.5266	5.8936
3.5242	5.6211
3.5218	5.3283
3.5195	5.0481
3.5171	4.866
3.5147	4.7452
3.5123	4.6167
3.5099	4.5078
3.5075	4.4253
3.5052	4.37
3.5028	4.3181
3.5004	4.2648
3.4981	4.1901
3.4957	4.136
3.4934	4.0932
3.491	4.0262
3.4887	3.9686
3.4863	3.9248
3.484	3.8901
3.4816	3.8518
3.4793	3.7894
3.477	3.7504
3.4746	3.7688
3.4723	3.8662
3.47	3.9869
3.4677	4.1081
3.4653	4.2784
3.463	4.4183
3.4607	4.4842
3.4584	4.5499
3.4561	4.6758
3.4538	4.74
3.4515	4.7033
3.4492	4.7332
3.4469	4.7705
3.4446	4.7636
3.4423	4.7662
3.44	4.7842
3.4378	4.8055
3.4355	4.8047
3.4332	4.7768
3.4309	4.7954
3.4287	4.8253
3.4264	4.8301
3.4241	4.8084
3.4219	4.8538
3.4196	4.8354
3.4174	4.771
3.4151	4.7938
3.4129	4.8148
3.4106	4.8007
3.4084	4.8256
3.4061	4.8193
3.4039	4.7627
3.4017	4.7408
3.3994	4.7868
3.3972	4.7411
3.395	4.7282
3.3928	4.7672
3.3906	4.7172
3.3883	4.6772
3.3861	4.6746
3.3839	4.6722
3.3817	4.6789
3.3795	4.6933
3.3773	4.6437
3.3751	4.6273
3.3729	4.6569
3.3707	4.6507
3.3685	4.6215
3.3663	4.5622
3.3641	4.543
3.362	4.5509
3.3598	4.483
3.3576	4.3987
3.3554	4.3159
3.3533	4.3078
3.3511	4.3026
3.3489	4.3066
3.3468	4.3753
3.3446	4.5116
3.3425	4.7634
3.3403	5.0584
3.3382	5.423
3.336	5.791
3.3339	6.1585
3.3317	6.5063
3.3296	6.7808
3.3274	6.989
3.3253	7.2011
3.3232	7.4342
3.321	7.5823
3.3189	7.6818
3.3168	7.808
3.3147	7.9656
3.3126	8.0878
3.3104	8.1438
3.3083	8.2291
3.3062	8.3176
3.3041	8.3546
3.302	8.4218
3.2999	8.4788
3.2978	8.5126
3.2957	8.563
3.2936	8.63
3.2915	8.7241
3.2894	8.7661
3.2874	8.7494
3.2853	8.7958
3.2832	8.842
3.2811	8.8597
3.279	8.9126
3.277	8.9221
3.2749	8.9164
3.2728	8.9272
3.2708	8.9747
3.2687	9.0192
3.2666	9.0087
3.2646	9.0081
3.2625	9.0305
3.2605	9.0224
3.2584	9.0099
3.2564	9.0325
3.2543	9.0363
3.2523	9.0624
3.2503	9.0468
3.2482	8.9865
3.2462	8.9923
3.2442	9.0265
3.2421	8.9915
3.2401	8.9243
3.2381	8.909
3.2361	8.8992
3.234	8.946
3.232	8.9482
3.23	8.8959
3.228	8.8987
3.226	8.8676
3.224	8.827
3.222	8.7829
3.22	8.7297
3.218	8.7594
3.216	8.7805
3.214	8.749
3.212	8.7443
3.21	8.7126
3.208	8.6659
3.206	8.6207
3.204	8.5767
3.2021	8.5982
3.2001	8.6173
3.1981	8.5685
3.1961	8.4993
3.1942	8.4754
3.1922	8.4587
3.1902	8.4436
3.1883	8.4269
3.1863	8.4157
3.1844	8.3934
3.1824	8.3627
3.1805	8.3489
3.1785	8.3139
3.1766	8.2384
3.1746	8.213
3.1727	8.1678
3.1707	8.0847
3.1688	8.052
3.1669	8.0367
3.1649	7.9735
3.163	7.9091
3.1611	7.8276
3.1591	7.7345
3.1572	7.6775
3.1553	7.678
3.1534	7.6352
3.1515	7.6211
3.1495	7.6204
3.1476	7.5919
3.1457	7.5866
3.1438	7.5832
3.1419	7.5689
3.14	7.5294
3.1381	7.5047
3.1362	7.489
3.1343	7.4976
3.1324	7.521
3.1305	7.4662
3.1286	7.444
3.1268	7.4735
3.1249	7.4445
3.123	7.4108
3.1211	7.3722
3.1192	7.3191
3.1174	7.278
3.1155	7.2416
3.1136	7.2569
3.1117	7.2368
3.1099	7.1483
3.108	7.1672
3.1061	7.2019
3.1043	7.1767
3.1024	7.1316
3.1006	7.1619
3.0987	7.1863
3.0969	7.1457
3.095	7.1186
3.0932	7.1236
3.0913	7.183
3.0895	7.2267
3.0876	7.2247
3.0858	7.2258
3.084	7.2275
3.0821	7.2229
3.0803	7.2019
3.0785	7.2332
3.0766	7.2741
3.0748	7.26
3.073	7.271
3.0712	7.2987
3.0694	7.2645
3.0675	7.26
3.0657	7.2533
3.0639	7.2413
3.0621	7.2255
3.0603	7.2144
3.0585	7.1818
3.0567	7.1892
3.0549	7.2356
3.0531	7.2413
3.0513	7.266
3.0495	7.2476
3.0477	7.2552
3.0459	7.2107
3.0441	7.2126
3.0423	7.2813
3.0406	7.2961
3.0388	7.2794
3.037	7.2987
3.0352	7.2959
3.0334	7.2961
3.0317	7.2954
3.0299	7.2504
3.0281	7.2232
3.0264	7.2591
3.0246	7.3332
3.0228	7.3223
3.0211	7.2818
3.0193	7.2247
3.0176	7.1809
3.0158	7.2294
3.014	7.2602
3.0123	7.2438
3.0105	7.2445
3.0088	7.2833
3.007	7.3397
3.0053	7.3241
3.0036	7.2225
3.0018	7.1908
3.0001	7.2318
2.9984	7.2134
2.9966	7.2237
2.9949	7.2589
2.9932	7.2675
2.9914	7.2514
2.9897	7.272
2.988	7.3359
2.9863	7.3253
2.9845	7.2703
2.9828	7.2368
2.9811	7.27
2.9794	7.2533
2.9777	7.231
2.976	7.2177
2.9743	7.1942
2.9726	7.1806
2.9709	7.1918
2.9692	7.2299
2.9675	7.2074
2.9658	7.1822
2.9641	7.2569
2.9624	7.2732
2.9607	7.2358
2.959	7.2229
2.9573	7.2531
2.9556	7.2091
2.9539	7.1857
2.9523	7.2184
2.9506	7.2152
2.9489	7.1801
2.9472	7.16
2.9455	7.1445
2.9439	7.199
2.9422	7.1985
2.9405	7.1971
2.9389	7.1978
2.9372	7.182
2.9355	7.2053
2.9339	7.3034
2.9322	7.2976
2.9306	7.221
2.9289	7.221
2.9272	7.2519
2.9256	7.2059
2.9239	7.2131
2.9223	7.2421
2.9207	7.2451
2.919	7.2883
2.9174	7.2791
2.9157	7.2856
2.9141	7.3047
2.9124	7.3459
2.9108	7.4074
2.9092	7.3847
2.9075	7.3629
2.9059	7.4071
2.9043	7.4778
2.9027	7.4086
2.901	7.3603
2.8994	7.4232
2.8978	7.4554
2.8962	7.4906
2.8946	7.5386
2.8929	7.5469
2.8913	7.5586
2.8897	7.5622
2.8881	7.5869
2.8865	7.6196
2.8849	7.6397
2.8833	7.6364
2.8817	7.6163
2.8801	7.6574
2.8785	7.7165
2.8769	7.7429
2.8753	7.7809
2.8737	7.8264
2.8721	7.8294
2.8705	7.8199
2.8689	7.8426
2.8673	7.8888
2.8658	7.8941
2.8642	7.8627
2.8626	7.9041
2.861	7.9653
2.8594	7.9356
2.8579	7.901
2.8563	7.9697
2.8547	8.0017
2.8531	8.0161
2.8516	8.0321
2.85	8.0711
2.8484	8.083
2.8469	8.1209
2.8453	8.1283
2.8437	8.127
2.8422	8.1333
2.8406	8.1453
2.8391	8.2012
2.8375	8.2053
2.836	8.1955
2.8344	8.1599
2.8329	8.1898
2.8313	8.2151
2.8298	8.1922
2.8282	8.1926
2.8267	8.146
2.8252	8.1278
2.8236	8.1556
2.8221	8.1778
2.8205	8.2457
2.819	8.2424
2.8175	8.2115
2.8159	8.2027
2.8144	8.2113
2.8129	8.2535
2.8114	8.2998
2.8098	8.2929
2.8083	8.297
2.8068	8.2903
2.8053	8.2582
2.8038	8.2221
2.8022	8.2479
2.8007	8.2422
2.7992	8.2049
2.7977	8.1275
2.7962	8.141
2.7947	8.1247
2.7932	8.0324
2.7917	7.9876
2.7902	7.9522
2.7887	7.8259
2.7872	7.7836
2.7857	7.8247
2.7842	7.8964
2.7827	7.9147
2.7812	7.8563
2.7797	7.8663
2.7782	7.8833
2.7767	7.9108
2.7752	7.8778
2.7738	7.8679
2.7723	7.8998
2.7708	7.8792
2.7693	7.8337
2.7678	7.7924
2.7664	7.8618
2.7649	7.9228
2.7634	7.9443
2.7619	8.002
2.7605	8.0584
2.759	8.1501
2.7575	8.2369
2.7561	8.2706
2.7546	8.3479
2.7531	8.5144
2.7517	8.7166
2.7502	8.8592
2.7488	9.0348
2.7473	9.2191
2.7458	9.4045
2.7444	9.5674
2.7429	9.7718
2.7415	9.9471
2.74	10.1357
2.7386	10.4455
2.7371	10.7424
2.7357	10.9711
2.7343	11.286
2.7328	11.6523
2.7314	12.0382
2.7299	12.415
2.7285	12.8393
2.7271	13.2948
2.7256	13.8087
2.7242	14.3475
2.7228	14.9497
2.7213	15.6266
2.7199	16.3143
2.7185	16.9815
2.7171	17.7225
2.7156	18.5233
2.7142	19.2599
2.7128	19.9576
2.7114	20.5551
2.71	21.1446
2.7085	21.7485
2.7071	22.2892
2.7057	22.8496
2.7043	23.5338
2.7029	24.2851
2.7015	25.0856
2.7001	25.9063
2.6987	26.7112
2.6973	27.4857
2.6959	28.1998
2.6945	28.9419
2.6931	29.7722
2.6917	30.6008
2.6903	31.2879
2.6889	31.9131
2.6875	32.5681
2.6861	33.1551
2.6847	33.6615
2.6833	34.1618
2.6819	34.6805
2.6805	35.1698
2.6791	35.4842
2.6778	35.7579
2.6764	36.0269
2.675	36.4546
2.6736	36.9332
2.6722	37.3164
2.6709	37.4397
2.6695	37.6804
2.6681	38.0421
2.6667	38.2823
2.6654	38.5321
2.664	38.8618
2.6626	39.1602
2.6613	39.3604
2.6599	39.5344
2.6585	39.7105
2.6572	39.951
2.6558	40.1328
2.6545	40.2959
2.6531	40.4015
2.6517	40.5381
2.6504	40.7735
2.649	40.9126
2.6477	40.9893
2.6463	41.102
2.645	41.2585
2.6436	41.4202
2.6423	41.5123
2.6409	41.5702
2.6396	41.6617
2.6382	41.7324
2.6369	41.832
2.6356	41.8777
2.6342	41.8659
2.6329	41.9208
2.6315	41.9109
2.6302	41.8617
2.6289	41.9846
2.6275	42.0712
2.6262	42.0989
2.6249	42.2136
2.6236	42.3112
2.6222	42.3665
2.6209	42.2805
2.6196	42.2614
2.6183	42.3152
2.6169	42.2191
2.6156	42.2994
2.6143	42.3607
2.613	42.362
2.6117	42.3825
2.6103	42.3725
2.609	42.3349
2.6077	42.2672
2.6064	42.1746
2.6051	42.1336
2.6038	42.1571
2.6025	42.1774
2.6012	42.154
2.5999	42.0787
2.5986	41.9829
2.5973	41.8159
2.596	41.5707
2.5947	41.3387
2.5934	41.3393
2.5921	41.387
2.5908	41.2774
2.5895	41.0261
2.5882	40.7663
2.5869	40.5522
2.5856	40.3529
2.5843	40.121
2.583	39.9392
2.5817	39.787
2.5805	39.6892
2.5792	39.6258
2.5779	39.4386
2.5766	39.2897
2.5753	39.1614
2.5741	38.8585
2.5728	38.6304
2.5715	38.4506
2.5702	38.0464
2.569	37.6638
2.5677	37.3789
2.5664	36.9841
2.5651	36.452
2.5639	35.9132
2.5626	35.3036
2.5613	34.6234
2.5601	33.9736
2.5588	33.2611
2.5575	32.4519
2.5563	31.6602
2.555	30.8073
2.5538	29.8902
2.5525	28.9791
2.5513	28.1218
2.55	27.2708
2.5487	26.4054
2.5475	25.6384
2.5462	24.9993
2.545	24.3543
2.5437	23.6711
2.5425	23.0594
2.5413	22.6356
2.54	22.3514
2.5388	22.0636
2.5375	21.9157
2.5363	21.9026
2.535	21.9054
2.5338	21.9523
2.5326	22.1184
2.5313	22.3945
2.5301	22.6758
2.5289	22.9445
2.5276	23.3185
2.5264	23.7705
2.5252	24.1506
2.5239	24.5021
2.5227	24.8845
2.5215	25.3079
2.5202	25.7081
2.519	26.0116
2.5178	26.3133
2.5166	26.5898
2.5154	26.836
2.5141	27.0777
2.5129	27.2497
2.5117	27.388
2.5105	27.5328
2.5093	27.6799
2.5081	27.8041
2.5068	27.928
2.5056	28.0017
2.5044	28.067
2.5032	28.1369
2.502	28.2247
2.5008	28.2802
2.4996	28.3608
2.4984	28.4237
2.4972	28.5354
2.496	28.6573
2.4948	28.7685
2.4936	28.888
2.4924	28.97
2.4912	29.0908
2.49	29.2334
2.4888	29.4083
2.4876	29.5937
2.4864	29.7657
2.4852	29.9306
2.484	30.1464
2.4828	30.3797
2.4816	30.6543
2.4805	30.9451
2.4793	31.1934
2.4781	31.5272
2.4769	31.8997
2.4757	32.2404
2.4745	32.555
2.4734	33.0146
2.4722	33.4642
2.471	33.8217
2.4698	34.2509
2.4686	34.6968
2.4675	35.0679
2.4663	35.4361
2.4651	35.8376
2.464	36.2479
2.4628	36.6243
2.4616	37.0067
2.4604	37.3176
2.4593	37.6452
2.4581	38.0098
2.4569	38.3233
2.4558	38.6395
2.4546	38.9511
2.4535	39.2231
2.4523	39.4614
2.4511	39.7239
2.45	40.0105
2.4488	40.1938
2.4477	40.4058
2.4465	40.6251
2.4454	40.8488
2.4442	41.0248
2.4431	41.2283
2.4419	41.4869
2.4408	41.7324
2.4396	41.9487
2.4385	42.1109
2.4373	42.3227
2.4362	42.5842
2.435	42.7854
2.4339	42.9962
2.4327	43.2006
2.4316	43.3845
2.4305	43.5931
2.4293	43.8154
2.4282	44.009
2.427	44.2523
2.4259	44.4688
2.4248	44.6136
2.4236	44.7387
2.4225	44.9143
2.4214	45.0957
2.4202	45.2874
2.4191	45.4849
2.418	45.6081
2.4169	45.7474
2.4157	45.8823
2.4146	45.9747
2.4135	46.1109
2.4124	46.2078
2.4112	46.2523
2.4101	46.3379
2.409	46.4549
2.4079	46.5458
2.4068	46.5657
2.4056	46.5078
2.4045	46.4935
2.4034	46.52
2.4023	46.5363
2.4012	46.5671
2.4001	46.5891
2.399	46.6255
2.3979	46.7401
2.3967	46.8246
2.3956	46.894
2.3945	47.0037
2.3934	47.1093
2.3923	47.1698
2.3912	47.1744
2.3901	47.2277
2.389	47.2275
2.3879	47.1306
2.3868	47.1334
2.3857	47.1837
2.3846	47.1052
2.3835	46.9935
2.3824	46.9061
2.3813	46.7624
2.3802	46.6482
2.3791	46.4982
2.3781	46.3872
2.377	46.1977
2.3759	45.9015
2.3748	45.7065
2.3737	45.5271
2.3726	45.268
2.3715	44.9971
2.3704	44.6655
2.3694	44.3444
2.3683	43.9673
2.3672	43.5326
2.3661	43.134
2.365	42.7646
2.364	42.2533
2.3629	41.5554
2.3618	40.8641
2.3607	40.2366
2.3597	39.622
2.3586	38.9363
2.3575	38.2125
2.3564	37.5493
2.3554	36.9454
2.3543	36.3341
2.3532	35.762
2.3522	35.1567
2.3511	34.6201
2.35	34.2066
2.349	33.8006
2.3479	33.3886
2.3468	32.9794
2.3458	32.7489
2.3447	32.5286
2.3436	32.2815
2.3426	32.1667
2.3415	32.0763
2.3405	31.9805
2.3394	31.9447
2.3384	32.0291
2.3373	32.0937
2.3363	32.2227
2.3352	32.3966
2.3342	32.5414
2.3331	32.7785
2.3321	32.9692
2.331	33.2885
2.33	33.6379
2.3289	33.9186
2.3279	34.2195
2.3268	34.5849
2.3258	34.8847
2.3247	35.1856
2.3237	35.484
2.3226	35.6979
2.3216	35.9886
2.3206	36.273
2.3195	36.4747
2.3185	36.6991
2.3175	36.9638
2.3164	37.1904
2.3154	37.3679
2.3144	37.4531
2.3133	37.5858
2.3123	37.7563
2.3113	37.8883
2.3102	38.0134
2.3092	38.1572
2.3082	38.2974
2.3071	38.3993
2.3061	38.4728
2.3051	38.5854
2.3041	38.6654
2.303	38.7919
2.302	38.9277
2.301	38.9911
2.3	39.0485
2.299	39.208
2.2979	39.3453
2.2969	39.5253
2.2959	39.7792
2.2949	39.9316
2.2939	40.1359
2.2929	40.3112
2.2918	40.4208
2.2908	40.6543
2.2898	40.8927
2.2888	41.0671
2.2878	41.2104
2.2868	41.4109
2.2858	41.6635
2.2848	41.8836
2.2838	42.1482
2.2828	42.4561
2.2818	42.7459
2.2808	42.9254
2.2798	43.1496
2.2787	43.4197
2.2777	43.7037
2.2767	43.9841
2.2757	44.2932
2.2747	44.5674
2.2738	44.8004
2.2728	45.0019
2.2718	45.2129
2.2708	45.4421
2.2698	45.645
2.2688	45.862
2.2678	46.0981
2.2668	46.2546
2.2658	46.3862
2.2648	46.565
2.2638	46.729
2.2628	46.8523
2.2618	46.9478
2.2609	47.0222
2.2599	47.2109
2.2589	47.4833
2.2579	47.595
2.2569	47.6662
2.2559	47.8058
2.255	47.9869
2.254	48.206
2.253	48.2933
2.252	48.3006
2.251	48.4128
2.2501	48.6173
2.2491	48.7458
2.2481	48.8844
2.2471	49.0221
2.2462	49.0719
2.2452	49.14
2.2442	49.2358
2.2433	49.3769
2.2423	49.5054
2.2413	49.605
2.2403	49.6803
2.2394	49.748
2.2384	49.7983
2.2374	49.8365
2.2365	49.9487
2.2355	50.0335
2.2345	50.0452
2.2336	50.1447
2.2326	50.2467
2.2317	50.2661
2.2307	50.3182
2.2297	50.3242
2.2288	50.2447
2.2278	50.2603
2.2269	50.3605
2.2259	50.3947
2.225	50.4565
2.224	50.4392
2.2231	50.4663
2.2221	50.5235
2.2211	50.5046
2.2202	50.6804
2.2192	50.6988
2.2183	50.6344
2.2173	50.8548
2.2164	51.0278
2.2155	51.0003
2.2145	51.0408
2.2136	51.1218
2.2126	51.1355
2.2117	51.1668
2.2107	51.2987
2.2098	51.3943
2.2088	51.387
2.2079	51.474
2.207	51.5836
2.206	51.5982
2.2051	51.6152
2.2041	51.8098
2.2032	51.9006
2.2023	51.9039
2.2013	52.0093
2.2004	52.098
2.1995	52.1588
2.1985	52.208
2.1976	52.2475
2.1967	52.3112
2.1957	52.3904
2.1948	52.46
2.1939	52.5438
2.193	52.5795
2.192	52.6356
2.1911	52.6801
2.1902	52.7229
2.1893	52.8438
2.1883	52.9079
2.1874	52.8977
2.1865	52.9156
2.1856	52.978
2.1846	53.0167
2.1837	53.0617
2.1828	52.9993
2.1819	52.9409
2.181	53.0411
2.18	53.0735
2.1791	53.0869
2.1782	53.1273
2.1773	53.1326
2.1764	53.0833
2.1755	53.1186
2.1746	53.1732
2.1736	53.1314
2.1727	53.0838
2.1718	53.108
2.1709	53.0754
2.17	52.9883
2.1691	52.9438
2.1682	52.9223
2.1673	52.9433
2.1664	52.8962
2.1655	52.9261
2.1646	52.8285
2.1637	52.7115
2.1628	52.6861
2.1619	52.7036
2.161	52.8029
2.1601	52.8055
2.1592	52.7036
2.1583	52.7234
2.1574	52.7007
2.1565	52.6519
2.1556	52.6442
2.1547	52.5787
2.1538	52.5909
2.1529	52.6583
2.152	52.7299
2.1511	52.7854
2.1502	52.8091
2.1493	52.822
2.1484	52.8598
2.1475	52.8711
2.1466	52.9696
2.1458	53.0587
2.1449	53.2161
2.144	53.279
2.1431	53.2567
2.1422	53.3687
2.1413	53.4977
2.1404	53.5754
2.1396	53.6144
2.1387	53.7125
2.1378	53.7764
2.1369	53.837
2.136	53.8999
2.1352	53.9922
2.1343	54.0583
2.1334	53.9472
2.1325	53.8845
2.1316	53.9846
2.1308	54.1106
2.1299	54.0712
2.129	54.0309
2.1281	54.0448
2.1273	54.164
2.1264	54.2837
2.1255	54.216
2.1247	54.1333
2.1238	54.1645
2.1229	54.1901
2.122	54.1881
2.1212	54.1755
2.1203	54.1116
2.1194	54.1073
2.1186	54.3133
2.1177	54.3018
2.1168	54.2059
2.116	54.3008
2.1151	54.2769
2.1143	54.1657
2.1134	54.2037
2.1125	54.3496
2.1117	54.3049
2.1108	54.2107
2.11	54.3154
2.1091	54.3813
2.1082	54.343
2.1074	54.3569
2.1065	54.2812
2.1057	54.2573
2.1048	54.2832
2.104	54.3501
2.1031	54.4059
2.1023	54.5138
2.1014	54.5496
2.1005	54.3372
2.0997	54.2918
2.0988	54.3717
2.098	54.4822
2.0971	54.5437
2.0963	54.3956
2.0955	54.3984
2.0946	54.5564
2.0938	54.5677
2.0929	54.564
2.0921	54.533
2.0912	54.5056
2.0904	54.5463
2.0895	54.57
2.0887	54.5526
2.0879	54.6014
2.087	54.578
2.0862	54.4822
2.0853	54.4717
2.0845	54.5458
2.0837	54.5976
2.0828	54.608
2.082	54.6009
2.0812	54.5385
2.0803	54.6358
2.0795	54.6066
2.076	54.5153
2.072	54.1348
2.068	54.1875
2.064	54.0726
2.06	54.0253
2.056	53.9121
2.052	53.9802
2.048	53.7752
2.044	53.677
2.04	53.575
2.036	53.5552
2.032	53.6122
2.028	53.4672
2.024	53.2497
2.02	53.056
2.016	52.6767
2.012	52.2062
2.008	51.7645
2.004	51.587
2	50.9886
1.996	50.6557
1.992	50.2842
1.988	49.9489
1.984	49.5754
1.98	49.5183
1.976	49.477
1.972	49.6379
1.968	49.4445
1.964	49.2088
1.96	49.3582
1.956	48.9902
1.952	48.9378
1.948	48.7531
1.944	48.6474
1.94	48.5581
1.936	48.4005
1.932	48.3099
1.928	48.138
1.924	48.0396
1.92	47.7818
1.916	47.8565
1.912	47.7941
1.908	47.9443
1.904	48.3639
1.9	49.0722
1.896	49.4406
1.892	50.2015
1.888	51.0736
1.884	51.8265
1.88	52.485
1.876	52.824
1.872	53.3797
1.868	53.8492
1.864	54.724
1.86	55.0789
1.856	55.3094
1.852	55.4191
1.848	55.6587
1.844	55.6818
1.84	55.9871
1.836	56.2869
1.832	56.4373
1.828	56.4826
1.824	56.4379
1.82	56.5639
1.816	56.9073
1.812	57.0047
1.808	56.8241
1.804	56.8149
1.8	56.9975
1.796	57.0587
1.792	57.1295
1.788	57.1728
1.784	57.2297
1.78	57.1979
1.776	57.1593
1.772	56.9226
1.768	56.8022
1.764	56.7814
1.76	56.7147
1.756	56.7147
1.752	56.519
1.748	56.3107
1.744	56.3917
1.74	56.48
1.736	56.5402
1.732	56.6565
1.728	56.6827
1.724	56.6583
1.72	56.7325
1.716	56.4694
1.712	56.5964
1.708	56.4237
1.704	56.6568
1.7	56.7563
1.696	56.5932
1.692	56.6917
1.688	56.5154
1.684	56.5402
1.68	56.558
1.676	56.4552
1.672	56.7857
1.668	56.6082
1.664	56.7084
1.66	56.8941
1.656	56.6763
1.652	56.3728
1.648	56.4875
1.644	56.2152
1.64	56.101
1.636	56.2828
1.632	56.1862
1.628	56.2297
1.624	56.3617
1.62	56.0394
1.616	56.0569
1.612	56.2066
1.608	56.105
1.604	56.1169
1.6	55.8732
1.596	55.9456
1.592	56.195
1.588	56.0976
1.584	56.0827
1.58	56.2232
1.576	56.068
1.572	55.903
1.568	55.5224
1.564	55.3036
1.56	55.1803
1.556	55.1032
1.552	55.0279
1.548	55.0358
1.544	55.084
1.54	54.9323
1.536	54.8972
1.532	54.4866
1.528	54.4382
1.524	54.5809
1.52	54.3818
1.516	54.3095
1.512	54.4516
1.508	54.1305
1.504	54.0215
1.5	53.9422
1.496	53.5961
1.492	53.7095
1.488	53.7095
1.484	53.4809
1.48	53.4308
1.476	53.3717
1.472	53.2408
1.468	53.1992
1.464	53.1337
1.46	52.7951
1.456	52.3799
1.452	52.1628
1.448	52.1347
1.444	52.1044
1.44	52.1276
1.436	51.9768
1.432	51.9066
1.428	51.7611
1.424	51.5426
1.42	51.3081
1.416	51.1577
1.412	50.9198
1.408	50.6432
1.404	50.8729
1.4	51.166
1.396	51.2854
1.392	51.468
1.388	51.9898
1.384	52.1898
1.38	52.0414
1.376	52.2458
1.372	52.3841
1.368	52.6403
1.364	52.6211
1.36	52.403
1.356	52.1939
1.352	52.3041
1.348	52.2952
1.344	52.1555
1.34	52.1642
1.336	52.2153
1.332	52.0936
1.328	51.9201
1.324	51.9145
1.32	51.9982
1.316	51.9927
1.312	51.818
1.308	51.6957
1.304	51.4745
1.3	51.2383
1.296	51.1418
1.292	51.0348
1.288	50.9172
1.284	50.7781
1.28	50.7302
1.276	50.4071
1.272	50.2608
1.268	50.2379
1.264	50.3171
1.26	50.3064
1.256	50.1726
1.252	49.9928
1.248	49.8818
1.244	49.8145
1.24	49.7362
1.236	49.6241
1.232	49.2417
1.228	49.0392
1.224	49.0174
1.22	49.141
1.216	48.9048
1.212	48.7477
1.208	48.7139
1.204	48.657
1.2	48.522
1.196	48.3885
1.192	48.3782
1.188	48.1988
1.184	48.0208
1.18	47.8424
1.176	47.7538
1.172	47.6102
1.168	47.4426
1.164	47.2257
1.16	47.0753
1.156	47.0106
1.152	46.9318
1.148	47.0227
1.144	46.8727
1.14	46.5311
1.136	46.2772
1.132	46.2545
1.128	46.2285
1.124	46.1212
1.12	45.8825
1.116	45.9507
1.112	45.9352
1.108	45.8046
1.104	45.4544
1.1	45.2094
1.096	45.2642
1.092	45.1616
1.088	44.9422
1.084	44.7301
1.08	44.9006
1.076	44.7579
1.072	44.4535
1.068	44.2611
1.064	44.2588
1.06	44.0479
1.056	43.9938
1.052	44.0136
1.048	43.8079
1.044	43.6684
1.04	43.625
1.036	43.5085
1.032	43.4661
1.028	43.3708
1.024	43.4001
1.02	43.2478
1.016	43.2429
1.012	43.1107
1.008	42.9666
1.004	42.9707
1	42.8576
0.996	42.5618
0.992	42.2999
0.988	42.808
0.984	42.5981
0.98	42.6307
0.976	42.3084
0.972	42.3673
0.968	42.2708
0.964	42.3164
0.96	42.1622
0.956	42.3282
0.952	42.1192
0.948	41.9751
0.944	42.0333
0.94	42.1614
0.936	41.9977
0.932	41.9666
0.928	41.7764
0.924	41.8269
0.92	41.7489
0.916	41.6753
0.912	41.5705
0.908	41.5547
0.904	41.5267
0.9	41.2559
0.896	41.3674
0.892	41.3535
0.888	41.3445
0.884	41.2584
0.88	41.2843
0.876	41.3993
0.872	41.2106
0.868	41.198
0.864	41.1499
0.86	41.0888
0.856	41.2054
0.852	41.1246
0.848	41.1149
0.844	41.0433
0.84	41.2765
0.836	41.2694
0.832	41.2357
0.828	41.2785
0.824	41.6068
0.82	41.5616
0.816	41.3308
0.812	41.1377
0.808	41.2418
0.804	41.3733
0.8	41.4881
0.799	41.7778
0.798	41.7811
0.797	41.7028
0.796	41.7323
0.795	41.5957
0.794	41.5362
0.793	41.5906
0.792	41.5546
0.791	41.5003
0.79	41.5572
0.789	41.6163
0.788	41.5086
0.787	41.2664
0.786	41.2549
0.785	41.2189
0.784	41.3711
0.783	41.4043
0.782	41.3262
0.781	41.3561
0.78	41.386
0.779	41.359
0.778	41.407
0.777	41.3022
0.776	41.2091
0.775	41.0743
0.774	40.8832
0.773	40.7566
0.772	40.9231
0.771	41.0571
0.77	41.0743
0.769	40.868
0.768	41.1513
0.767	41.1723
0.766	40.904
0.765	40.9359
0.764	40.8846
0.763	41.0104
0.762	40.9173
0.761	40.777
0.76	40.6375
0.759	40.7562
0.758	40.9953
0.757	40.9559
0.756	40.9046
0.755	40.7789
0.754	40.7164
0.753	40.6956
0.752	40.7164
0.751	40.6682
0.75	40.5778
0.749	40.5778
0.748	40.3818
0.747	40.6074
0.746	40.4336
0.745	40.398
0.744	40.3152
0.743	40.4992
0.742	40.4217
0.741	40.4911
0.74	40.2585
0.739	40.4533
0.738	40.5214
0.737	40.4643
0.736	40.1653
0.735	40.1397
0.734	40.118
0.733	39.9999
0.732	39.9328
0.731	40.0409
0.73	40.1747
0.729	40.2418
0.728	40.1902
0.727	40.1022
0.726	39.927
0.725	39.8608
0.724	39.6421
0.723	39.6669
0.722	39.9105
0.721	39.7809
0.72	39.8269
0.719	39.8367
0.718	39.7955
0.717	39.523
0.716	39.4621
0.715	39.6362
0.714	39.6977
0.713	39.8211
0.712	39.5872
0.711	39.6183
0.71	39.4479
0.709	39.4187
0.708	39.3782
0.707	39.4072
0.706	39.5462
0.705	39.4771
0.704	39.3895
0.703	39.199
0.702	38.7879
0.701	39.0456
0.7	39.1432
0.699	39.2248
0.698	39.5337
0.697	39.4028
0.696	39.3964
0.695	38.9023
0.694	39.0221
0.693	38.968
0.692	38.827
0.691	38.6664
0.69	38.5235
0.689	38.6678
0.688	38.9219
0.687	38.8695
0.686	38.5825
0.685	38.5898
0.684	38.8092
0.683	38.93
0.682	38.8092
0.681	38.8652
0.68	38.595
0.679	38.6604
0.678	38.6851
0.677	38.5606
0.676	38.5437
0.675	38.5851
0.674	38.3654
0.673	38.5136
0.672	38.2525
0.671	37.983
0.67	38.116
0.669	38.044
0.668	38.1337
0.667	38.3083
0.666	38.1918
0.665	38.1165
0.664	38.1609
0.663	37.9832
0.662	37.9314
0.661	38.01
0.66	37.8154
0.659	37.6704
0.658	37.7401
0.657	37.6621
0.656	37.3798
0.655	37.5614
0.654	37.7951
0.653	37.7373
0.652	37.7604
0.651	37.8417
0.65	37.8651
0.649	37.8069
0.648	37.502
0.647	37.5802
0.646	37.4668
0.645	37.2132
0.644	37.2708
0.643	37.3309
0.642	37.3486
0.641	37.3309
0.64	37.1932
0.639	36.919
0.638	37.0113
0.637	36.9873
0.636	36.8687
0.635	36.9477
0.634	36.9319
0.633	36.8133
0.632	36.8386
0.631	36.8386
0.63	36.783
0.629	36.8028
0.628	36.8244
0.627	36.7471
0.626	37.0638
0.625	36.7506
0.624	36.7903
0.623	36.6733
0.622	36.5961
0.621	36.5584
0.62	36.3111
0.619	36.3541
0.618	36.3751
0.617	36.2992
0.616	36.4408
0.615	36.4425
0.614	36.1065
0.613	36.1671
0.612	36.446
0.611	36.0717
0.61	36.0891
0.609	35.9044
0.608	35.9377
0.607	35.862
0.606	35.8242
0.605	35.883
0.604	35.8458
0.603	35.8085
0.602	35.887
0.601	35.7738
0.6	35.7185
0.599	35.7198
0.598	35.6433
0.597	35.5078
0.596	35.4314
0.595	35.3346
0.594	35.718
0.593	35.7396
0.592	35.3929
0.591	35.2966
0.59	35.2
0.589	35.0456
0.588	35.0453
0.587	35.2584
0.586	35.103
0.585	35.026
0.584	34.9096
0.583	34.9292
0.582	34.9288
0.581	34.8904
0.58	34.5466
0.579	34.5843
0.578	34.4869
0.577	34.3731
0.576	34.3722
0.575	34.3347
0.574	34.2609
0.573	34.4711
0.572	34.0671
0.571	33.9217
0.57	33.8255
0.569	33.8075
0.568	33.7338
0.567	33.639
0.566	33.7636
0.565	33.5927
0.564	33.4235
0.563	33.3101
0.562	33.2124
0.561	33.0586
0.56	33.0312
0.559	32.9476
0.558	32.725
0.557	32.7132
0.556	32.5713
0.555	32.2967
0.554	32.3102
0.553	32.25
0.552	32.2602
0.551	32.3374
0.55	31.9792
0.549	32.0636
0.548	31.965
0.547	31.9543
0.546	31.6029
0.545	31.6196
0.544	31.4
0.543	31.3544
0.542	31.3293
0.541	31.3874
0.54	31.15
0.539	30.9388
0.538	30.6706
0.537	30.7745
0.536	30.6015
0.535	30.5679
0.534	30.3197
0.533	30.0761
0.532	29.8949
0.531	29.7923
0.53	30.0296
0.529	29.921
0.528	29.844
0.527	29.7654
0.526	29.6672
0.525	29.594
0.524	29.1436
0.523	28.9601
0.522	28.8854
0.521	28.7509
0.52	28.7514
0.519	28.8432
0.518	28.761
0.517	28.5564
0.516	28.5337
0.515	28.2095
0.514	28.0816
0.513	28.0424
0.512	27.9603
0.511	27.8152
0.51	27.7628
0.509	27.5193
0.508	27.2418
0.507	27.2327
0.506	27.0871
0.505	27.059
0.504	27.2347
0.503	27.0721
0.502	27.0023
0.501	26.6557
0.5	26.7749
0.499	26.5496
0.498	26.5396
0.497	26.4148
0.496	26.3701
0.495	26.1605
0.494	26.0879
0.493	26.0501
0.492	25.9716
0.491	25.9148
0.49	25.855
0.489	25.7088
0.488	25.6178
0.487	25.5071
0.486	25.5101
0.485	25.1746
0.484	25.0738
0.483	25.1376
0.482	25.0475
0.481	25.0217
0.48	24.9074
0.479	24.9202
0.478	24.9591
0.477	24.7805
0.476	24.9211
0.475	24.6238
0.474	24.8058
0.473	24.5996
0.472	24.6368
0.471	24.5355
0.47	24.2649
0.469	24.5534
0.468	24.4039
0.467	24.2883
0.466	24.3054
0.465	24.1446
0.464	24.0857
0.463	23.9227
0.462	23.9799
0.461	24.1325
0.46	23.8056
0.459	23.3555
0.458	23.386
0.457	23.5187
0.456	23.4206
0.455	23.4549
0.454	23.3903
0.453	23.3637
0.452	23.4285
0.451	23.3065
0.45	23.1826
0.449	23.2433
0.448	23.212
0.447	23.1174
0.446	22.9419
0.445	22.7879
0.444	22.7603
0.443	22.7559
0.442	22.5238
0.441	22.4233
0.44	22.4405
0.439	22.3635
0.438	22.1739
0.437	21.9709
0.436	21.8029
0.435	21.6162
0.434	21.6162
0.433	21.6951
0.432	21.472
0.431	21.3296
0.43	21.262
0.429	20.9341
0.428	20.9332
0.427	20.7392
0.426	20.6018
0.425	20.4601
0.424	20.4601
0.423	20.3491
0.422	20.249
0.421	20.0697
0.42	19.9701
0.419	19.8415
0.418	19.7899
0.417	19.5026
0.416	19.5191
0.415	19.4803
0.414	19.3207
0.413	19.2724
0.412	18.9607
0.411	19.0763
0.41	19.007
0.409	18.9888
0.408	18.8959
0.407	18.8572
0.406	18.7873
0.405	18.4899
0.404	18.4679
0.403	18.4784
0.402	18.4225
0.401	18.1987
0.4	18.1699
	
