Name: Acmite NaFe+3Si2O6
Type:  Mineral
Class:  Silicates
Subclass:  Inosilicates (Pyroxene Group - single chain)
Particle Size:  Fine (less than 2 Micrometers)
Sample No.:  acmite.2
Owner: JHU
Wavelength Range:  IR
Origin:  Sample from Kangerdluarssuk, near Narssaq, Greenland via 
the Smithsonian (sample no. NMNH 133746).
Description: The sample consisted of large (up to 2 cm long and 
almost as wide), very dark green prismatic crystals of acmite 
intergrown with albite (?).  The material was crushed and hand-
picked for single crystal measurements and grinding.  The 
concentrate appeared pure under microscopic examination.  

Measurement:  Transmission
First Column:  X
Second Column:  Y  
X Units:  Wavelength (micrometers)
Y Units:  Transmittance (percent)
First X Value:  25.0442
Last X Value:  2.079
Number of X Values:  2287
Additional Information:  acmite2a.txt

25.04420302	68.9061
24.9237955	69.242
24.80454022	70.7889
24.68642074	73.0193
24.5694209	74.4725
24.45358465	75.2342
24.3387763	76.1092
24.22504094	76.9451
24.11236361	77.3826
24.00072962	77.0389
23.89012454	77.1326
23.78053421	76.4451
23.67194472	76.2967
23.56434244	75.6131
23.45771395	75.0584
23.35204611	74.1912
23.24732598	73.3709
23.14354087	72.3924
23.04067832	71.7361
22.93872607	70.408
22.83767211	69.1209
22.7375046	67.7049
22.63821194	66.3748
22.53978272	64.8123
22.44220571	63.1717
22.3454699	61.3123
22.24956446	59.8553
22.15447875	58.1405
22.06020229	56.6678
21.96677306	54.8358
21.87408402	53.1424
21.7821739	51.3592
21.69103293	50.0799
21.60065148	48.4374
21.5110201	47.4237
21.42212949	46.3925
21.33397051	45.66
21.24653416	44.8905
21.15981159	44.8534
21.0737941	45.0311
20.98847313	45.5741
20.90384024	46.3241
20.81988716	47.4628
20.73660571	48.1913
20.65398787	49.1581
20.57202575	50.0858
20.49071156	51.3671
20.41003766	52.3495
20.3299965	53.2518
20.25058069	53.9237
20.1717829	54.5702
20.09359597	54.869
20.01601281	54.701
19.93906621	54.3397
19.8626695	54.0331
19.78685599	54.1424
19.71161901	55.0995
19.63695203	56.912
19.56284859	59.1405
19.48930232	61.7703
19.41630698	64.0701
19.34385639	66.16
19.27194448	67.617
19.20056526	68.9998
19.12971284	69.7498
19.05938141	70.5389
18.98956523	70.7342
18.92025868	71.0252
18.85145618	70.8358
18.78315226	70.7928
18.71534153	70.1736
18.64801865	69.6326
18.58117838	68.699
18.51481556	68.0858
18.44892507	67.1717
18.38350191	66.7313
18.31854111	66.3397
18.25407111	66.2498
18.19002023	65.8055
18.12641726	65.66
18.06325753	65.1532
18.00053642	64.3866
17.93824937	63.492
17.8763919	63.0096
17.81495958	62.9159
17.75394803	63.2186
17.69335296	64.0701
17.63317011	65.2977
17.57339529	66.8836
17.51402436	68.5936
17.45505324	70.576
17.39647791	72.4412
17.3382944	74.325
17.28049878	75.8299
17.2230872	77.4041
17.16605584	78.6297
17.10940093	79.9939
17.05311876	81.0359
16.99720566	82.2635
16.94165801	82.9607
16.88647225	83.9461
16.83167317	84.3904
16.77720046	85.2469
16.72307919	85.6658
16.66930597	86.2693
16.61587747	86.3299
16.56279037	86.7654
16.51004141	86.9734
16.45762737	87.3787
16.40554507	87.5154
16.35379138	87.7937
16.30236319	87.8562
16.25125744	87.9968
16.20047111	87.9422
16.15000121	87.8797
16.0998448	87.8484
16.04999896	87.7166
16.00048641	87.2576
15.95125297	86.6795
15.90232158	86.1092
15.85368947	84.9724
15.80535391	83.6609
15.75731218	81.8728
15.70956162	80.1277
15.6620996	78.0594
15.61492349	76.574
15.56803074	75.534
15.52141878	75.6609
15.47508511	76.2439
15.42902725	77.8562
15.38324273	79.5975
15.33772913	81.7117
15.29248405	83.4334
15.24750513	85.0291
15.20279002	86.0965
15.1583364	87.1619
15.114142	87.7898
15.07020455	88.4197
15.02652181	88.7468
14.98309158	89.075
14.93991168	89.242
14.89700213	89.4021
14.85431629	89.4724
14.81187438	89.5427
14.76967431	89.5642
14.72771402	89.5779
14.68599147	89.6062
14.64450465	89.5427
14.60325156	89.5984
14.56223023	89.6502
14.52143873	89.7625
14.48087511	89.5662
14.44053748	89.6668
14.40042395	89.5525
14.36053266	89.6306
14.32086177	89.4939
14.28140946	89.5925
14.24217393	89.3748
14.20315338	89.4148
14.16434607	89.239
14.12575025	89.2547
14.0873642	89.1267
14.0491862	89.1453
14.01121458	88.9285
13.97344765	88.8025
13.93590321	88.6248
13.89854065	88.6238
13.8613779	88.4666
13.82441336	88.2561
13.78764544	88.0369
13.75107258	87.8108
13.71469324	87.7342
13.67850587	87.594
13.64250897	87.6331
13.60670103	87.7132
13.57108057	87.9905
13.53564612	88.2615
13.50039624	88.6209
13.46532947	88.7893
13.4304444	88.9612
13.39573962	88.8826
13.36121373	89.0784
13.32686536	89.0413
13.29269314	89.1487
13.25869572	89.1311
13.22487175	89.2268
13.19121992	89.0994
13.15773892	89.1467
13.12442745	89.0857
13.09130135	89.2014
13.05832501	89.1404
13.02551438	88.9924
12.99286821	88.9763
12.96038529	88.9002
12.92806437	88.5393
12.89590426	88.5213
12.86390376	88.7405
12.83206168	88.7444
12.80037684	88.5193
12.7688481	88.3552
12.73747429	88.4788
12.70625427	88.4202
12.67518693	88.303
12.64427113	88.1663
12.61350579	88.3167
12.58290562	88.1975
12.55243781	88.094
12.52211719	87.8357
12.4919427	87.6956
12.46191328	87.4729
12.43202789	87.4378
12.40228549	87.3963
12.37268507	87.3128
12.34322561	87.0144
12.31390609	86.8943
12.28472554	86.6155
12.25568296	86.2674
12.22677738	86.0232
12.19800782	85.7595
12.16937334	85.3167
12.14087298	84.8084
12.1125058	84.3611
12.08427087	83.8328
12.05616727	83.1722
12.02819409	82.7137
12.00035041	82.1448
11.97263534	81.4671
11.945048	80.803
11.9175875	79.9554
11.8902671	78.9549
11.86305761	77.8401
11.83597236	76.7215
11.80901051	75.4983
11.78217122	74.4651
11.75545365	73.3006
11.72885698	72.324
11.70238038	71.5506
11.67602305	71.0037
11.64978419	70.4925
11.62366299	70.1346
11.59765866	69.9246
11.57177043	69.6268
11.54599752	69.3011
11.52033916	69.0194
11.49479458	68.5037
11.46936304	67.8201
11.44404378	67.0667
11.41883606	66.201
11.39373914	65.2054
11.3687523	64.3895
11.34387482	63.5838
11.31910597	62.327
11.29444505	61.0721
11.26990406	59.993
11.24545684	58.9691
11.22111545	58.0428
11.19687921	56.7484
11.17274743	55.4549
11.14871946	54.514
11.12479461	53.4457
11.10097222	52.2777
11.07725165	51.2504
11.05363222	50.2352
11.03011331	49.1996
11.00669427	48.1815
10.98337447	47.2411
10.96015327	46.4276
10.93703005	45.6522
10.9140042	44.9413
10.89107509	44.1473
10.86824213	43.4052
10.8455047	42.6327
10.82286221	41.8212
10.80031407	41.037
10.77785969	40.35
10.75549848	39.4652
10.73322986	38.3905
10.71106474	37.2929
10.68897956	36.8441
10.66698525	36.8168
10.64508128	35.7694
10.62326708	34.8349
10.6015421	34.4042
10.5799058	34.1234
10.55835763	33.3774
10.53689705	32.6552
10.51552354	32.102
10.49423657	31.5321
10.4730356	30.9555
10.45192012	30.727
10.43088962	30.4677
10.40994358	30.079
10.38908149	29.8183
10.36830285	29.7465
10.34760717	29.873
10.32699394	30.0356
10.30646267	30.371
10.28601287	30.8495
10.26564407	31.3554
10.24535578	31.8988
10.22514752	32.497
10.20502924	33.1117
10.1849796	33.6669
10.16500858	34.141
10.14511574	34.5653
10.12530059	34.8793
10.10556271	35.0849
10.08590162	35.1083
10.0663169	35.0707
10.04680808	34.9745
10.02737473	34.7343
10.00801642	34.4062
9.98873271	34.1083
9.969523168	33.7782
9.950387369	33.393
9.931324888	33.0116
9.912335307	32.7089
9.893427994	32.4726
9.874582922	32.2602
9.855809507	32.1195
9.83710734	31.9731
9.818476015	31.8593
9.799915133	31.7035
9.781424293	31.6176
9.7630031	31.6195
9.744651161	31.6488
9.726368087	31.727
9.70815349	31.7694
9.690006986	31.7118
9.671928196	31.5282
9.653916739	31.2992
9.635972241	31.1611
9.618094328	30.9823
9.600282632	30.8066
9.582536785	30.6825
9.564856422	30.5649
9.547241181	30.4706
9.529690704	30.414
9.512204634	30.4067
9.494782617	30.4345
9.477424301	30.5571
9.460138288	30.7504
9.4429063	30.9985
9.425736975	31.2997
9.408629972	31.6581
9.391584952	32.057
9.374601579	32.498
9.35767952	33.0414
9.340818443	33.6767
9.324018018	34.3402
9.307277919	35.0048
9.290597822	35.7782
9.273977405	36.5981
9.257416348	37.4823
9.240914333	38.4628
9.224471046	39.5028
9.208086173	40.6273
9.191759404	41.8129
9.17549043	43.0809
9.159278945	44.4672
9.143124645	45.8031
9.127027227	47.1678
9.110986392	48.5829
9.095001842	49.9999
9.079073281	51.4359
9.06320863	52.9086
9.04739114	54.3739
9.031628764	55.8465
9.015921215	57.2303
9.000268208	58.6209
8.984669459	59.8827
8.969124685	61.1703
8.953633608	62.3729
8.93819595	63.451
8.922811435	64.5496
8.907479789	65.5262
8.89220074	66.4178
8.876974017	67.2645
8.861799353	68.2108
8.846676481	69.0159
8.831605135	69.7825
8.816585054	70.4788
8.801615977	71.2537
8.786697643	71.9866
8.771829795	72.7562
8.757012178	73.4612
8.742244536	74.1815
8.727526619	74.8382
8.712858175	75.5042
8.69824652	76.1497
8.683676252	76.7439
8.669154714	77.2083
8.654681663	77.6941
8.640256858	78.2371
8.625880055	78.6956
8.611551018	79.1233
8.597269507	79.6028
8.583035287	80.1678
8.568848124	80.4983
8.554707784	80.9182
8.540614036	81.3465
8.52656665	81.7835
8.512565398	82.116
8.498610052	82.5613
8.484700388	82.9895
8.470836182	83.4607
8.45701721	83.8836
8.443243252	84.3133
8.429514089	84.6697
8.415829502	85.1243
8.402189274	85.5408
8.388593191	85.9531
8.375041038	86.3933
8.361539594	86.8076
8.348074642	87.1736
8.334652987	87.5371
8.32127442	87.9297
8.307938734	88.2595
8.294645723	88.6179
8.281395183	88.9531
8.268186911	89.3259
8.255020704	89.6033
8.241896361	89.9304
8.228813685	90.2293
8.215772476	90.5471
8.202772537	90.741
8.189813674	91.0342
8.176895691	91.2637
8.164018395	91.5271
8.151188239	91.7234
8.138391724	91.9714
8.125635323	92.0967
8.11291885	92.2224
8.100242116	92.416
8.087604937	92.6277
8.075007126	92.7852
8.062448501	92.9255
8.049928879	93.0928
8.037448078	93.2214
8.025005918	93.3369
8.012602221	93.4382
8.000236807	93.5632
7.9879095	93.6111
7.975620124	93.7361
7.963368505	93.7686
7.951154468	93.8672
7.938977841	93.906
7.926838452	94.0095
7.914736131	94.0459
7.902670708	94.1824
7.890642014	94.2693
7.878649883	94.3867
7.866694148	94.4802
7.854780812	94.6169
7.842897355	94.6834
7.831049799	94.7393
7.819237984	94.8474
7.807461747	94.9785
7.795720929	95.0293
7.784015369	95.0398
7.772344909	95.126
7.760709391	95.1904
7.749108659	95.2449
7.737542556	95.28
7.726010929	95.3494
7.714513623	95.3113
7.703050485	95.3738
7.691621363	95.4241
7.680226106	95.5215
7.668864563	95.531
7.657536586	95.5908
7.646242025	95.6086
7.634980733	95.667
7.623752563	95.6729
7.61255737	95.7078
7.601395008	95.7207
7.590265333	95.74
7.579173946	95.7673
7.568109199	95.79
7.557076711	95.8389
7.546076342	95.8411
7.535107952	95.8787
7.524171401	95.8691
7.51326655	95.9285
7.502393263	95.9202
7.491551403	95.9509
7.480740833	95.9529
7.469961418	96.0066
7.459213023	95.9658
7.448495516	96.0066
7.437808762	96.002
7.42715263	96.0583
7.416526989	96.0605
7.405931707	96.1052
7.395366655	96.0969
7.384831703	96.137
7.374326724	96.1677
7.363851589	96.1941
7.353406171	96.2285
7.342990345	96.2393
7.332603984	96.2644
7.322252325	96.2529
7.311924506	96.2898
7.30162578	96.324
7.291356025	96.3623
7.281115117	96.3381
7.270902937	96.3874
7.260719363	96.4033
7.250564275	96.4626
7.240437554	96.4338
7.230339081	96.4512
7.220268738	96.4153
7.210226408	96.4939
7.200211974	96.5039
7.19022532	96.5452
7.18026633	96.5671
7.17033489	96.616
7.160436013	96.6521
7.150559317	96.696
7.140709829	96.7268
7.130887439	96.7109
7.121092034	96.7683
7.111323503	96.8008
7.101581735	96.8691
7.091866622	96.8191
7.082178053	96.874
7.07251592	96.9053
7.062880115	96.9492
7.053270531	96.9402
7.04368706	96.9785
7.034129597	96.9553
7.024598035	97.0115
7.01509227	97.001
7.005612196	97.0466
6.99615771	97.041
6.986728709	97.0896
6.977325089	97.0625
6.967946748	97.0918
6.958593585	97.1074
6.949265497	97.1057
6.939962385	97.1155
6.930688952	97.1201
6.921435478	97.1619
6.912206681	97.1814
6.903002461	97.2175
6.893822721	97.1982
6.884667364	97.2334
6.875536292	97.2131
6.866429409	97.2878
6.857346618	97.2803
6.848287825	97.3201
6.839252935	97.2754
6.830241852	97.3215
6.821254483	97.3201
6.812290735	97.363
6.803350514	97.3603
6.794433728	97.4231
6.785540285	97.4228
6.776670093	97.4475
6.767823062	97.4189
6.7589991	97.4355
6.750198118	97.4685
6.741420026	97.4441
6.732664735	97.4687
6.723932156	97.4939
6.715226709	97.5339
6.706539278	97.4971
6.697874296	97.541
6.689231675	97.4922
6.680611329	97.5195
6.672013173	97.4668
6.663437121	97.4785
6.654883087	97.4326
6.646350987	97.4834
6.637840737	97.4636
6.629352253	97.4753
6.620885451	97.4309
6.612440248	97.4714
6.604016563	97.4893
6.595614312	97.4695
6.587233415	97.491
6.578873789	97.5183
6.570535354	97.5183
6.56221803	97.5117
6.553921736	97.5354
6.545646392	97.4831
6.537391921	97.5039
6.529158241	97.4563
6.520945276	97.4988
6.512757189	97.4502
6.504585407	97.4307
6.496434107	97.3809
6.488303211	97.4138
6.480192643	97.3772
6.472102327	97.3889
6.464032186	97.3269
6.455982145	97.3357
6.44795213	97.3015
6.439942066	97.2727
6.431951879	97.2637
6.423981494	97.2693
6.416030838	97.2722
6.408099838	97.2187
6.400188422	97.2097
6.392296516	97.1497
6.384424048	97.1638
6.376570948	97.125
6.368737143	97.1404
6.360922563	97.0898
6.353127136	97.0947
6.345350793	97.0625
6.337593464	97.0605
6.329855078	96.9736
6.322139564	96.9568
6.314438848	96.908
6.30675687	96.8962
6.29909356	96.8447
6.291448851	96.8142
6.283822676	96.7781
6.276214965	96.7383
6.268625654	96.7295
6.261054675	96.6484
6.253501961	96.6172
6.245967447	96.5928
6.238451067	96.541
6.230952756	96.4561
6.223472449	96.458
6.21601008	96.384
6.208565585	96.3535
6.201142747	96.2703
6.1937338	96.2559
6.186342535	96.1853
6.178968891	96.1345
6.171612803	96.0701
6.164274209	96.0749
6.156953047	96.0466
6.149649255	96.0691
6.14236277	96.0579
6.135093533	96.0437
6.12784148	96.0994
6.120606552	96.1755
6.113388688	96.2676
6.106187828	96.2744
6.099003911	96.3047
6.091836878	96.3367
6.084686669	96.417
6.077553226	96.4353
6.070436489	96.5154
6.063336399	96.5281
6.056252899	96.6221
6.049185931	96.667
6.042135436	96.7246
6.035101357	96.7422
6.02808727	96.8494
6.021085843	96.8533
6.01410066	96.8777
6.007131667	96.8916
6.000178805	96.9424
5.99324202	97.0124
5.986321256	97.084
5.979416457	97.1316
5.972527568	97.1728
5.965654534	97.2751
5.9587973	97.332
5.951955813	97.4597
5.945130017	97.5281
5.938319859	97.6621
5.931525286	97.7031
5.924746243	97.7617
5.917982678	97.7869
5.911234538	97.8623
5.904501769	97.8816
5.89778432	97.9802
5.891082139	97.9412
5.884395172	98.0078
5.87772337	98.1252
5.871066679	98.158
5.864428488	98.1926
5.85780186	98.1848
5.851190191	98.1963
5.84459343	98.2048
5.838011527	98.2295
5.831444431	98.2761
5.824892094	98.3291
5.818354465	98.2922
5.811831494	98.3057
5.805323133	98.2969
5.798829332	98.3301
5.792350043	98.3203
5.785885217	98.3535
5.779434806	98.3298
5.772998761	98.3857
5.766577035	98.4143
5.760169579	98.4443
5.753776347	98.4316
5.747397291	98.4267
5.741032364	98.4519
5.734681519	98.4473
5.728344709	98.4394
5.722021888	98.4492
5.715713009	98.468
5.709421287	98.4421
5.703140149	98.4514
5.696872816	98.4434
5.690619242	98.4697
5.684379382	98.4746
5.678153192	98.53
5.671940626	98.529
5.66574164	98.5535
5.659556189	98.5408
5.653384229	98.5791
5.647225716	98.5798
5.641080605	98.6133
5.634948854	98.5928
5.628830419	98.6211
5.622725256	98.6269
5.616633323	98.6406
5.610557723	98.6413
5.604492113	98.6462
5.598439603	98.668
5.592400152	98.6631
5.586373717	98.6982
5.580360257	98.7314
5.574359729	98.7764
5.568372092	98.7546
5.562397304	98.8093
5.556435324	98.822
5.550486112	98.8542
5.544549625	98.8476
5.538625823	98.8699
5.532714665	98.8323
5.526816112	98.8367
5.520930122	98.8301
5.515056656	98.8689
5.509195674	98.8518
5.503347136	98.864
5.497511002	98.8777
5.491687233	98.8796
5.48587579	98.8699
5.480076633	98.8633
5.474289725	98.905
5.468518015	98.9182
5.462755479	98.9541
5.457005076	98.9231
5.451266765	98.9265
5.445540511	98.9297
5.439826274	98.9656
5.434124016	98.9519
5.428433701	98.9766
5.422755291	98.956
5.417088748	98.96
5.411434035	98.9187
5.405791116	98.8916
5.400159953	98.8887
5.394540509	98.9109
5.388932749	98.9101
5.383336635	98.8926
5.377752132	98.9111
5.372179203	98.8867
5.366617813	98.9043
5.361067925	98.9072
5.355529504	98.9258
5.350002515	98.947
5.344486921	98.9695
5.338982689	98.96
5.333492627	98.9863
5.328011006	98.9802
5.32254064	98.9958
5.317081497	98.9753
5.31163354	98.9621
5.306196736	98.9665
5.30077105	98.9668
5.295356449	98.9695
5.289952898	98.9883
5.284560364	98.9853
5.279178813	99.0017
5.273808212	99.0163
5.268448526	99.0071
5.263099724	99.0068
5.257761771	99.0293
5.252434635	99.0251
5.247118283	98.9997
5.241812682	98.9973
5.236517799	98.9824
5.231233603	99.0059
5.225960061	98.999
5.220697141	99.0059
5.21544481	98.9951
5.210203036	98.998
5.204974498	99.0117
5.19975374	99.0388
5.194543444	99.0439
5.189343579	99.0398
5.184154115	99.0742
5.178975019	99.0957
5.173806261	99.0957
5.168647809	99.0752
5.163499634	99.1023
5.158361704	99.1169
5.153233989	99.1572
5.148116459	99.167
5.143009082	99.1755
5.137911829	99.1738
5.13282467	99.1728
5.127747575	99.1572
5.122680514	99.154
5.117623458	99.1826
5.112576376	99.2068
5.107539239	99.1875
5.102512018	99.1963
5.097494683	99.2048
5.092487206	99.2175
5.087489558	99.2078
5.082504292	99.2441
5.077526209	99.2226
5.072557868	99.1853
5.06759924	99.1748
5.062650297	99.1914
5.057711011	99.1863
5.052781354	99.1882
5.047861297	99.2029
5.042950812	99.178
5.038049872	99.1599
5.033158448	99.1794
5.028276513	99.1702
5.023404039	99.1321
5.018541	99.1604
5.013687367	99.1677
5.008843113	99.1951
5.004010715	99.1907
4.999185133	99.2117
4.994368849	99.2087
4.989561837	99.1887
4.984764069	99.1877
4.979975518	99.219
4.97519616	99.2121
4.970425966	99.2126
4.96566491	99.2287
4.960912967	99.2244
4.95617011	99.2297
4.951436313	99.2561
4.94671155	99.2507
4.941995795	99.2434
4.937289023	99.2917
4.932591209	99.2795
4.927902325	99.24
4.923222347	99.2224
4.918551251	99.2395
4.913889009	99.2258
4.909235598	99.2444
4.904590991	99.2585
4.899955165	99.2605
4.895328095	99.2541
4.890712146	99.238
4.886102507	99.2068
4.88150155	99.1975
4.876909249	99.2004
4.87232558	99.2146
4.86775052	99.2253
4.863184043	99.2146
4.858626126	99.2097
4.854076745	99.2126
4.849535875	99.2478
4.845003493	99.2493
4.840479575	99.2556
4.835964098	99.2385
4.831457037	99.2551
4.826958369	99.2366
4.822468072	99.2268
4.81798612	99.2038
4.813512492	99.2493
4.809047164	99.2566
4.804590113	99.2429
4.800141316	99.2483
4.79570075	99.2942
4.791268392	99.2737
4.78684422	99.2449
4.782430498	99.2561
4.778022625	99.2561
4.773622869	99.2551
4.769231209	99.2478
4.764847623	99.258
4.760472086	99.2698
4.756104579	99.2424
4.751745078	99.2434
4.747393562	99.262
4.743050009	99.2654
4.738714396	99.3025
4.734386703	99.2786
4.730066907	99.258
4.725754987	99.2439
4.721450921	99.2624
4.717154688	99.2292
4.712866266	99.2414
4.708585635	99.2361
4.704312773	99.2346
4.700047658	99.2336
4.695790271	99.2302
4.691540589	99.2312
4.687298593	99.2307
4.68306426	99.2273
4.67883976	99.2322
4.67462069	99.2522
4.670409221	99.2458
4.666205334	99.2224
4.662009009	99.2195
4.657820224	99.199
4.65363896	99.1848
4.649465195	99.218
4.645298911	99.2322
4.641140087	99.2488
4.636988702	99.2307
4.632844738	99.2253
4.628708174	99.2151
4.62457899	99.2458
4.620457167	99.2327
4.616342684	99.2287
4.612235523	99.2224
4.608135664	99.1912
4.604043086	99.1726
4.599957772	99.2117
4.595879702	99.2322
4.591808856	99.2204
4.587745215	99.2097
4.58368876	99.1999
4.57964157	99.2019
4.575599426	99.1995
4.571564412	99.1809
4.567536508	99.1511
4.563515696	99.1589
4.559501956	99.1697
4.555495271	99.1716
4.551495621	99.1648
4.547502989	99.1912
4.543517355	99.1765
4.539538701	99.1604
4.535567009	99.1467
4.531602261	99.1384
4.527644439	99.1423
4.523693523	99.116
4.519749497	99.1531
4.515814382	99.1516
4.511884077	99.1213
4.507960608	99.1287
4.504043956	99.1345
4.500134104	99.1091
4.496231034	99.1121
4.492334729	99.0862
4.488445171	99.1111
4.484562343	99.1018
4.480686226	99.0984
4.476816804	99.0945
4.47295406	99.1218
4.469097975	99.135
4.465248534	99.1077
4.461405718	99.0642
4.45756951	99.0828
4.453739894	99.0788
4.449916853	99.0691
4.44610037	99.029
4.442290427	99.0442
4.438487009	99.0413
4.434690097	99.012
4.430899676	99.0647
4.42711573	99.0764
4.423340197	99.0491
4.419569145	99.0627
4.415804518	99.0788
4.412046298	99.0471
4.408294471	99.0491
4.404549018	99.0349
4.400809925	99.0403
4.397077175	99.0144
4.393350752	99.0295
4.389630639	99.0002
4.385916821	98.9939
4.382209282	98.9997
4.378508006	99.0403
4.374812977	99.0369
4.371124179	99.0198
4.367441596	99.0256
4.363765214	99.0398
4.360095015	99.0417
4.356430985	99.012
4.352773108	98.9934
4.349121369	98.9768
4.345475751	98.9973
4.341836241	99.0027
4.338202821	98.9841
4.334577357	98.9748
4.330956072	98.9944
4.327340832	98.9753
4.323731623	99.008
4.320128429	99.0251
4.316531235	99.0051
4.312940028	98.947
4.30935479	98.9695
4.305775509	98.9949
4.302202168	98.9812
4.298634754	99.0085
4.29507325	99.0437
4.291517644	99.0139
4.287967919	98.9944
4.284424062	98.9924
4.280886058	98.9802
4.277353892	98.9792
4.27382755	98.9831
4.270307018	98.9812
4.266792281	98.9792
4.263283325	98.9714
4.259780136	98.9617
4.256282699	98.9978
4.252791	98.9631
4.249306832	98.9866
4.245826565	99.0095
4.242351994	98.9978
4.238883105	99.0076
4.235419885	99.0334
4.231962319	99.0222
4.228510393	99.012
4.225064094	99.0144
4.221623408	98.989
4.218188322	98.9587
4.214758821	98.947
4.211334892	98.9372
4.207916522	98.948
4.204503696	98.9729
4.201096402	98.967
4.197694626	98.9709
4.194300114	98.9011
4.190909331	98.9495
4.187524026	98.9236
4.184144186	98.8874
4.180769797	98.8835
4.177400846	98.9382
4.174037321	98.9265
4.170679208	98.9495
4.167326493	98.9548
4.163979165	98.949
4.16063721	98.9553
4.157300615	98.9558
4.153969367	98.9412
4.150643454	98.8972
4.147322862	98.9197
4.144007579	98.9314
4.140697592	98.9343
4.137392888	98.9255
4.134093455	98.9299
4.130799281	98.885
4.127510352	98.8987
4.124226656	98.8894
4.120948181	98.8992
4.117674914	98.9089
4.114408535	98.9167
4.111145645	98.9109
4.107887925	98.9104
4.104635365	98.9206
4.101387951	98.9241
4.098145671	98.905
4.094908514	98.8738
4.091676466	98.905
4.088449517	98.8982
4.085227653	98.8655
4.082010864	98.8474
4.078799136	98.8757
4.075592459	98.8718
4.072390819	98.8689
4.069194206	98.8303
4.066002607	98.8562
4.062816011	98.8855
4.059634406	98.8806
4.056457779	98.8459
4.053286121	98.8308
4.050119418	98.8445
4.046957659	98.8577
4.043800833	98.863
4.040648928	98.7834
4.037503563	98.7839
4.034361463	98.8362
4.031224251	98.8381
4.028091913	98.7996
4.024964439	98.8049
4.021841819	98.7854
4.018724039	98.8035
4.01561109	98.8064
4.012502959	98.8005
4.009399637	98.7742
4.00630111	98.7615
4.00320737	98.7849
4.000118404	98.8015
3.997034201	98.7756
3.99395475	98.7644
3.990880041	98.7097
3.987810062	98.7229
3.984744803	98.7346
3.981684252	98.678
3.9786284	98.7073
3.975577234	98.7214
3.972530744	98.7014
3.96948892	98.6658
3.966451751	98.6941
3.963420797	98.6775
3.960392903	98.6819
3.957369631	98.6995
3.954350972	98.7156
3.951336915	98.6941
3.948327449	98.654
3.945322564	98.6804
3.942322249	98.6863
3.939326493	98.6453
3.936335288	98.6775
3.933348621	98.6916
3.930366483	98.6609
3.927388864	98.676
3.924415753	98.7107
3.921447139	98.7146
3.918483014	98.6882
3.915523366	98.6858
3.912568186	98.6423
3.909617463	98.6609
3.906671188	98.6199
3.90372935	98.6155
3.900791939	98.6287
3.897858945	98.6316
3.894930359	98.6018
3.892007684	98.5622
3.889087881	98.5339
3.886172454	98.5354
3.883261396	98.5105
3.880354695	98.4885
3.877452343	98.4451
3.874554329	98.4587
3.871660644	98.4675
3.868771278	98.447
3.865886222	98.3928
3.863005465	98.4143
3.860128998	98.4241
3.857256812	98.4285
3.854388896	98.4182
3.851525243	98.4304
3.848665841	98.4285
3.845812161	98.4011
3.842961232	98.4084
3.840114528	98.3865
3.837272037	98.3845
3.834433752	98.3455
3.831599662	98.3689
3.828769759	98.365
3.825944033	98.3552
3.823122474	98.3415
3.820305074	98.3689
3.817491824	98.366
3.814682714	98.3171
3.811877735	98.3147
3.809076878	98.2859
3.806280134	98.2742
3.803487494	98.2659
3.800698949	98.2815
3.797914489	98.2693
3.795134107	98.2419
3.792357792	98.2351
3.789585537	98.2185
3.786817332	98.2253
3.784053167	98.2522
3.781293036	98.24
3.778538356	98.1921
3.77578626	98.1863
3.773038171	98.2209
3.770294079	98.1843
3.767553976	98.1409
3.764817852	98.1252
3.7620857	98.1013
3.759357511	98.1077
3.756633275	98.0876
3.753912985	98.0862
3.751196632	98.0369
3.748484207	98.0491
3.745775701	98.0544
3.743071107	98.0359
3.740370416	98.0373
3.73767362	98.0256
3.734980709	98.01
3.732291676	97.9792
3.729606512	97.9744
3.726925208	97.9568
3.724247758	97.9299
3.721574151	97.926
3.718904381	97.9353
3.716238438	97.9202
3.713577694	97.8752
3.71091938	97.8381
3.708264869	97.8635
3.705614154	97.8455
3.702967225	97.8308
3.700324074	97.8186
3.697684695	97.8381
3.695049078	97.8083
3.692417215	97.8147
3.689789099	97.8142
3.687164722	97.7966
3.684544075	97.7932
3.68192715	97.78
3.67931394	97.7737
3.676704437	97.8035
3.674098633	97.7849
3.67149652	97.7483
3.66889809	97.7073
3.666303336	97.7131
3.663712249	97.6736
3.661124822	97.6423
3.658541047	97.6819
3.655960916	97.6736
3.653384422	97.6682
3.65081289	97.6487
3.648243644	97.699
3.645678012	97.7068
3.643115986	97.7039
3.640557559	97.6638
3.638002722	97.6228
3.635451469	97.6101
3.632903791	97.6018
3.630359682	97.5398
3.627819133	97.5061
3.625282138	97.5642
3.622748688	97.5847
3.620218777	97.4978
3.617692397	97.4675
3.615169541	97.4822
3.6126502	97.5061
3.610135673	97.4514
3.607623341	97.3962
3.605114504	97.3904
3.602609154	97.385
3.600107283	97.3865
3.597608885	97.3728
3.595113953	97.3889
3.592622478	97.3791
3.590134454	97.3748
3.587649874	97.366
3.585168731	97.3479
3.582691017	97.3142
3.580216725	97.2873
3.577745848	97.2273
3.57527838	97.2288
3.572814313	97.2361
3.57035364	97.2502
3.567896354	97.2366
3.565442448	97.2468
3.562991916	97.2742
3.560544749	97.2327
3.558100942	97.2214
3.555660487	97.1736
3.553223378	97.1267
3.550790868	97.1584
3.548360427	97.1384
3.545933311	97.1135
3.543509513	97.0583
3.541089027	97.0237
3.538671844	96.9978
3.53625796	96.9939
3.533847367	97.0295
3.531440058	96.9724
3.529036026	96.9416
3.526635266	96.8787
3.524237769	96.8948
3.52184353	96.9021
3.519452542	96.8494
3.517064798	96.7893
3.514680292	96.7209
3.512299017	96.7268
3.509920967	96.7312
3.507546135	96.6858
3.505174514	96.637
3.502806098	96.6096
3.500440881	96.6599
3.498078855	96.7073
3.495720015	96.6794
3.493365575	96.676
3.491013085	96.6565
3.488663762	96.696
3.486317598	96.6428
3.483974588	96.5959
3.481634725	96.5745
3.479298003	96.5686
3.476964415	96.5662
3.474633956	96.5876
3.472306619	96.5666
3.469982397	96.5471
3.467661284	96.5569
3.465343275	96.5842
3.463028363	96.5276
3.460716541	96.5017
3.458407804	96.447
3.456102146	96.408
3.453799559	96.4353
3.451500039	96.408
3.449203579	96.4304
3.446910172	96.3513
3.444619814	96.3093
3.442332497	96.2947
3.440048216	96.2566
3.437768146	96.2034
3.435489916	96.1721
3.433214704	96.1501
3.430942504	96.1116
3.428673309	96.0413
3.426407114	95.9773
3.424143913	95.947
3.421883699	95.9182
3.419626467	95.8728
3.417372212	95.8474
3.415120926	95.8577
3.412872605	95.8914
3.410627242	95.8909
3.408384831	95.9177
3.406145367	95.9275
3.403908845	95.9397
3.401675257	95.9744
3.399444599	95.9587
3.397216864	95.9587
3.394992047	95.9612
3.392770143	95.9475
3.390551144	95.9143
3.388335047	95.8674
3.386121844	95.8679
3.383912676	95.863
3.381705245	95.842
3.379500692	95.7795
3.377299012	95.7541
3.375100198	95.7795
3.372904246	95.8108
3.370711149	95.844
3.368520903	95.8401
3.366333501	95.8513
3.364148938	95.8831
3.361967208	95.8206
3.359788306	95.8025
3.357612227	95.7869
3.355438965	95.8245
3.353268515	95.8127
3.35110087	95.7849
3.348937148	95.7561
3.346775098	95.7639
3.344615837	95.7732
3.342459362	95.7659
3.340305665	95.7634
3.338154741	95.762
3.336006587	95.7756
3.333861195	95.7327
3.33171856	95.7185
3.329578678	95.7302
3.327441544	95.7307
3.32530715	95.6345
3.323175494	95.5999
3.321046568	95.6072
3.318920368	95.5608
3.31679689	95.5081
3.314676126	95.4749
3.312558073	95.5081
3.310442725	95.4924
3.308330077	95.4514
3.306220124	95.4436
3.304112861	95.4041
3.302008281	95.3987
3.299906382	95.385
3.297808244	95.3689
3.295711686	95.3733
3.293617792	95.3474
3.291526557	95.3674
3.289437976	95.3357
3.287352045	95.2869
3.285268756	95.2522
3.283188107	95.2424
3.281110091	95.2991
3.279034705	95.2776
3.276961942	95.2581
3.274891798	95.2502
3.272824267	95.2717
3.270759346	95.2732
3.268697029	95.2053
3.26663731	95.24
3.264580186	95.1619
3.262525652	95.1501
3.260473701	95.115
3.25842433	95.0886
3.256377534	95.0515
3.254333308	95.0652
3.252291646	95.0632
3.250252545	94.9763
3.248217054	94.9773
3.246183057	94.9734
3.244151606	94.9236
3.242122696	94.9089
3.240096322	94.8728
3.238072479	94.8376
3.236051163	94.8093
3.234032369	94.7888
3.232016093	94.7927
3.230002329	94.7419
3.227991073	94.6863
3.22598232	94.6765
3.223976065	94.6794
3.221972305	94.6951
3.219971033	94.6667
3.217972246	94.6853
3.215975939	94.6531
3.213982108	94.6121
3.211990747	94.6521
3.210001852	94.6404
3.208015419	94.6179
3.206031443	94.5837
3.204049919	94.5632
3.202070843	94.5564
3.200095235	94.5564
3.19812104	94.4949
3.196149279	94.4841
3.194179949	94.4705
3.192213043	94.4548
3.190248559	94.4138
3.18828649	94.3953
3.186326834	94.3806
3.184369586	94.3494
3.18241474	94.3259
3.180462293	94.3503
3.17851224	94.3318
3.176564577	94.325
3.1746193	94.2605
3.172676403	94.2126
3.170735883	94.2351
3.168797736	94.2166
3.166861956	94.1648
3.164928541	94.198
3.162997484	94.1716
3.161068783	94.071
3.159142432	94.0349
3.157218427	94.0125
3.155296765	93.9216
3.153378435	93.9021
3.151461443	93.9109
3.14954678	93.8914
3.147634443	93.8435
3.145724426	93.8689
3.143816726	93.7703
3.141911338	93.7859
3.140008258	93.7595
3.138107483	93.7341
3.136209007	93.74
3.134312827	93.7312
3.132418938	93.6462
3.130527337	93.6013
3.128638019	93.5867
3.126750981	93.5798
3.124866217	93.5584
3.122984699	93.5076
3.121104471	93.489
3.119226507	93.4158
3.1173508	93.4441
3.115477349	93.4451
3.113606148	93.4353
3.111737193	93.4324
3.10987048	93.4119
3.108006006	93.4021
3.106143766	93.3416
3.104283756	93.3191
3.102425973	93.325
3.100570412	93.325
3.098717069	93.3211
3.096865941	93.2898
3.095017023	93.2986
3.093170311	93.2107
3.091325802	93.1697
3.089483491	93.1814
3.087643375	93.1336
3.085805449	93.1375
3.08396971	93.0867
3.082136155	93.0525
3.080304778	93.0603
3.078476524	93.0564
3.076649492	93.0476
3.074824627	93.0544
3.073001926	93.0388
3.071181385	93.0046
3.069363	92.9959
3.067546766	92.9441
3.065732681	92.8972
3.06392074	92.8601
3.06211094	92.8562
3.060303276	92.8572
3.058497745	92.8103
3.056694344	92.7859
3.054893068	92.8142
3.053093914	92.7869
3.051296877	92.7732
3.049501955	92.7127
3.047709144	92.7117
3.045918439	92.6765
3.044129837	92.6296
3.042343335	92.6658
3.040558928	92.7087
3.038776613	92.6257
3.036996386	92.5867
3.035219166	92.5681
3.033443104	92.5134
3.031669119	92.4509
3.029897208	92.4373
3.028127367	92.4187
3.026359592	92.3445
3.02459388	92.325
3.022830228	92.3015
3.021068631	92.2205
3.019309085	92.1189
3.017551589	92.1375
3.015796137	92.1482
3.014042726	92.1267
3.012291354	92.1013
3.010542015	92.0447
3.008794707	92.0437
3.007049426	91.9968
3.005306169	91.9617
3.003564931	91.9431
3.00182571	91.9451
3.000088503	91.9548
2.998353304	91.9109
2.996620112	91.8982
2.994888923	91.8289
2.993160628	91.8494
2.991433432	91.8181
2.989708228	91.824
2.987985013	91.7908
2.986263784	91.7888
2.984544536	91.7166
2.982827267	91.6882
2.981111973	91.6765
2.97939865	91.6716
2.977687296	91.656
2.975977906	91.5662
2.974270478	91.5193
2.972565009	91.4509
2.970861493	91.3601
2.96915993	91.2966
2.967460314	91.3093
2.965763522	91.2703
2.964067792	91.156
2.962373999	91.0984
2.960682141	91.0974
2.958992215	91.0642
2.957304216	91.0447
2.955618142	91.0437
2.95393399	90.988
2.952251756	91.0086
2.950571437	90.9197
2.94889303	90.8787
2.947216531	90.9226
2.945541937	90.9666
2.943869245	90.9841
2.942198452	90.8963
2.940529554	90.8552
2.938862549	90.9138
2.937197432	90.8982
2.935534201	90.9353
2.933872853	90.8289
2.932213384	90.8103
2.930555792	90.8093
2.928900072	90.8562
2.927246222	90.8045
2.925595095	90.783
2.923944975	90.7888
2.922296715	90.8045
2.920650312	90.7088
2.919005763	90.7468
2.917363066	90.7283
2.915722216	90.7732
2.91408321	90.7713
2.912446047	90.7039
2.910810722	90.7205
2.909177232	90.7625
2.907545575	90.7224
2.905915747	90.7234
2.904287745	90.8132
2.902661566	90.8396
2.901037208	90.863
2.899414666	90.8836
2.897793938	90.9265
2.896175022	90.9783
2.894557913	91.0701
2.892942609	91.1287
2.891329106	91.1062
2.889717403	91.0818
2.888107495	91.1912
2.886500214	91.2468
2.884893888	91.2869
2.883289349	91.3533
2.881686594	91.449
2.880085619	91.449
2.878486423	91.4763
2.876889001	91.5271
2.875293352	91.5603
2.873699471	91.6336
2.872107357	91.6101
2.870517006	91.7107
2.868928415	91.7507
2.867341582	91.7771
2.865756502	91.8367
2.864173175	91.8943
2.862591596	91.9412
2.861011762	92.0398
2.859433672	92.1179
2.857857321	92.1521
2.856282708	92.197
2.854709829	92.2029
2.853138681	92.2537
2.851569261	92.3084
2.850001568	92.3455
2.848436408	92.3416
2.846872156	92.3953
2.845309621	92.4275
2.8437488	92.45
2.842189691	92.5154
2.840632291	92.5671
2.839076596	92.5437
2.837522604	92.6296
2.835970313	92.6443
2.834419719	92.657
2.83287082	92.6658
2.831323613	92.7849
2.829778094	92.8484
2.828234263	92.9255
2.826692114	92.949
2.825151647	92.9724
2.823612858	93.0427
2.822075744	93.0437
2.820540303	93.1062
2.819006531	93.1091
2.817474427	93.1531
2.815943987	93.2791
2.81441521	93.3455
2.812888091	93.3406
2.811363418	93.4343
2.809839609	93.5037
2.80831745	93.4929
2.806796939	93.5154
2.805278075	93.5798
2.803760853	93.6482
2.802245271	93.6755
2.800731327	93.7429
2.799219018	93.8396
2.797708341	93.8875
2.796199294	93.9841
2.794691874	94.0906
2.793186078	94.199
2.791681905	94.283
2.79017935	94.3103
2.788678412	94.4568
2.787179865	94.575
2.785682151	94.6248
2.784186046	94.6443
2.782691547	94.7361
2.781198652	94.7771
2.779707358	94.8718
2.778217662	94.949
2.776729562	95.0828
2.775243056	95.156
2.77375814	95.2615
2.772274812	95.325
2.77079307	95.4099
2.769312911	95.4607
2.767834333	95.6013
2.766357333	95.7039
2.764881908	95.7742
2.763408056	95.8601
2.761935774	95.9216
2.760465061	96.0388
2.758995913	96.1853
2.757528328	96.3523
2.756062304	96.4412
2.754597837	96.4587
2.753134926	96.613
2.751674325	96.7673
2.750214517	96.8005
2.748756257	96.8689
2.747299542	97.0408
2.74584437	97.1013
2.74439074	97.1853
2.742938647	97.2068
2.741488091	97.2976
2.740039067	97.3591
2.738591575	97.4099
2.737145611	97.3748
2.735701174	97.4265
2.73425826	97.5085
2.732816867	97.5554
2.731376994	97.5857
2.729938636	97.6023
2.728501793	97.6619
2.727066462	97.7185
2.72563264	97.6716
2.724200325	97.6775
2.722769514	97.7419
2.721340206	97.7224
2.719912397	97.6755
2.718486086	97.654
2.717062008	97.6648
2.715638684	97.657
2.714216851	97.7117
2.712796505	97.8132
2.711377646	97.8591
2.709960269	97.8318
2.708544374	97.8318
2.707129958	97.8757
2.705717018	97.8611
2.704305552	97.9646
2.702895558	97.9499
2.701487034	97.9138
2.700079976	97.8708
2.698674384	97.9343
2.697270255	97.9304
2.695867585	97.9265
2.694466374	97.9304
2.693066619	97.9919
2.691668318	98.0622
2.690271467	98.0505
2.688876066	97.989
2.687482111	97.9958
2.686089602	98.0896
2.684698534	98.0359
2.683309626	98.0398
2.681921436	98.0427
2.680534681	98.0193
2.679149359	97.9539
2.677765469	97.9997
2.676383008	98.0164
2.675001973	97.8953
2.673622363	97.8435
2.672244175	97.9333
2.670867407	97.9783
2.669492057	97.9724
2.668118123	97.9382
2.666745602	97.9607
2.665374493	97.9451
2.664004793	98.0203
2.6626365	97.9568
2.66127032	97.8796
2.659904834	97.7966
2.658540748	97.8171
2.657178061	97.8435
2.65581677	97.7966
2.654456873	97.8357
2.653098368	97.8562
2.651741253	97.8162
2.650385525	97.781
2.649031183	97.8249
2.647678224	97.8406
2.646326647	97.7742
2.644976449	97.7976
2.643627628	97.7976
2.642280182	97.7966
2.640934109	97.7849
2.639589407	97.7537
2.638246073	97.7478
2.636904106	97.6482
2.635563503	97.6443
2.634224263	97.6755
2.632886383	97.6794
2.631549862	97.6736
2.630214697	97.6501
2.628881577	97.6404
2.627549117	97.5974
2.626218007	97.6443
2.624888245	97.6521
2.62355983	97.7732
2.622232758	97.7712
2.620907028	97.6931
2.619582638	97.6677
2.618259585	97.6697
2.616937869	97.6892
2.615617486	97.6521
2.614298435	97.6658
2.612980713	97.658
2.61166432	97.6892
2.610349252	97.7576
2.609035507	97.6833
2.607723085	97.6521
2.606411982	97.6677
2.605102197	97.7341
2.603793727	97.6697
2.602486572	97.574
2.601180728	97.5798
2.599876194	97.615
2.598572968	97.654
2.597271722	97.6248
2.595971105	97.6267
2.59467179	97.7165
2.593373774	97.7029
2.592077057	97.6951
2.590781636	97.7908
2.589487509	97.8162
2.588194675	97.8767
2.58690313	97.8708
2.585612874	97.8025
2.584323905	97.779
2.58303622	97.7419
2.581749817	97.7497
2.580464695	97.6521
2.579180852	97.7341
2.577898286	97.6814
2.576616995	97.6345
2.575336976	97.6443
2.574058229	97.6208
2.572780751	97.6248
2.571504541	97.5876
2.570229596	97.5388
2.568955915	97.3884
2.567683495	97.4138
2.566412994	97.3865
2.565143091	97.406
2.563874445	97.4314
2.562607053	97.4958
2.561340913	97.5388
2.560076024	97.4978
2.558812384	97.5095
2.55754999	97.5486
2.556288841	97.5076
2.555028936	97.533
2.553770272	97.488
2.552512847	97.4255
2.55125666	97.408
2.550001709	97.447
2.548747991	97.406
2.547495506	97.4021
2.546244252	97.3865
2.544994225	97.488
2.543745426	97.5955
2.542497852	97.5349
2.5412515	97.4958
2.54000637	97.4705
2.53876246	97.574
2.537519767	97.5037
2.536278934	97.4099
2.535038671	97.3533
2.53379962	97.4646
2.53256178	97.4314
2.531325149	97.363
2.530089725	97.3669
2.528855506	97.3455
2.52762249	97.2771
2.526390677	97.2673
2.525160064	97.3201
2.523930648	97.2908
2.52270243	97.3474
2.521475406	97.324
2.520249575	97.2263
2.519024936	97.3162
2.517801486	97.3865
2.516579857	97.4021
2.515358781	97.4216
2.514138889	97.3767
2.512920179	97.3826
2.511702651	97.4705
2.510486301	97.5271
2.50927113	97.5349
2.508057134	97.3708
2.506844312	97.4236
2.505632662	97.4568
2.504422183	97.449
2.503212874	97.49
2.502004731	97.406
2.500797754	97.3689
2.499591942	97.3064
2.498387291	97.4568
2.497183801	97.3865
2.49598147	97.2126
2.494780296	97.2693
2.493580278	97.2888
2.492381413	97.2927
2.491183701	97.2361
2.489987139	97.2537
2.488791726	97.2283
2.48759808	97.2107
2.486404959	97.3201
2.485212983	97.3142
2.484022149	97.2576
2.482832455	97.2263
2.4816439	97.283
2.480456483	97.3669
2.479270202	97.4021
2.478085055	97.2458
2.47690104	97.2419
2.475718156	97.3748
2.474536402	97.3611
2.473355775	97.2615
2.472176274	97.2537
2.470997898	97.1755
2.469820644	97.2927
2.468644512	97.2966
2.467469499	97.1873
2.466295604	97.2361
2.465122826	97.3357
2.463951163	97.2673
2.462780612	97.3005
2.461611174	97.2146
2.460442845	97.2126
2.45927623	97.2908
2.458110116	97.3689
2.456945108	97.2029
2.455781204	97.1892
2.454618401	97.2673
2.4534567	97.3533
2.452296097	97.2458
2.451136592	97.1677
2.449978183	97.1501
2.448820868	97.199
2.447664646	97.1599
2.446509516	97.0427
2.445355475	97.113
2.444202523	96.947
2.443050657	96.9919
2.441899876	97.0076
2.440750179	96.988
2.439601564	97.1189
2.43845403	97.283
2.437307575	97.1892
2.436162197	97.1267
2.435017895	97.1189
2.433874668	97.1443
2.432732513	97.1599
2.431592022	97.1951
2.430452008	97.3396
2.429313063	97.0779
2.428175185	97.0798
2.427038372	97.0232
2.425902624	97.1365
2.424767938	97.1755
2.423634312	97.0896
2.422501747	97.0505
2.421370239	97.1658
2.420239788	97.1482
2.419110392	97.0955
2.417982049	97.1052
2.416854758	97.0876
2.415728518	97.1091
2.414603328	97.1248
2.413479185	97.156
2.412356088	97.1814
2.411234036	97.2107
2.410113027	97.2439
2.40899306	97.1599
2.407874134	97.1033
2.406756246	97.0955
2.405639396	97.0623
2.40452416	96.9939
2.40340938	96.9646
2.402295634	97.1287
2.401182919	97.0876
2.400071234	97.033
2.398960578	96.9998
2.39785095	97.0564
2.396742348	97.0564
2.39563477	97.0779
2.394528216	96.906
2.393422683	96.9294
2.392318171	96.9236
2.391214677	97.0115
2.390112201	96.8845
2.389010742	96.9705
2.387910297	97.0251
2.386811435	97.0974
2.385713014	97.1677
2.384615605	97.0154
2.383519204	97.0642
2.382423811	97.1404
2.381329425	97.0955
2.380236043	96.9685
2.379143665	97.1248
2.37805229	97.0779
2.376961915	97.1814
2.375872539	97.0662
2.374784162	96.9529
2.373696781	97.0544
2.372610396	97.1482
2.371525004	97.1736
2.370440606	97.0779
2.369357198	97.1267
2.368274781	97.113
2.367193351	97.1833
2.366112909	97.2185
2.365033453	97.0154
2.363954982	96.8826
2.362877493	96.906
2.361800987	96.8044
2.360726018	96.8005
2.35965147	96.7908
2.3585779	96.7126
2.357505307	96.7048
2.356433688	96.5876
2.355363044	96.7146
2.354293372	96.7595
2.353224671	96.7673
2.35215694	96.7107
2.351090177	96.7263
2.350024382	96.9998
2.348959552	96.9998
2.347895687	97.0251
2.346832785	97.0154
2.345770845	97.074
2.344709866	97.156
2.343649846	96.9939
2.342590784	96.9685
2.341532678	96.9861
2.340475528	96.9216
2.339419333	96.8064
2.33836409	96.8533
2.337309798	96.8533
2.336256457	97.0095
2.335204611	97.0388
2.334153166	96.947
2.333102667	96.8279
2.332053114	96.9138
2.331004504	96.9548
2.329956838	96.908
2.328910112	96.8376
2.327864326	96.8689
2.32681948	96.9451
2.325775571	96.8123
2.324732598	96.8376
2.32369056	96.8435
2.322649456	96.8435
2.321609284	96.6658
2.320570043	96.6501
2.319531733	96.8376
2.318494351	96.7341
2.317457897	96.6658
2.316422369	96.908
2.315387766	96.9392
2.314354087	96.9001
2.31332133	96.9451
2.312289495	97.0466
2.31125858	96.9333
2.310229117	96.9294
2.309200038	96.9001
2.308171875	96.7341
2.307144627	96.8689
2.306118293	96.8748
2.305092872	96.9451
2.304068363	96.8611
2.303044763	96.8748
2.302022073	96.7673
2.301000291	96.8533
2.299979415	97.0701
2.298959445	96.908
2.297940379	96.8201
2.296922216	96.8064
2.295904955	96.8201
2.294888595	97.0251
2.29387366	96.9841
2.292859097	96.8279
2.291845431	96.8845
2.29083266	97.0876
2.289820785	97.0544
2.288809803	97.0349
2.287799713	96.947
2.286790515	96.8376
2.285782206	96.9158
2.284774786	96.9685
2.283768254	96.7283
2.282762608	96.6638
2.281757848	96.658
2.280753972	96.7732
2.279750978	96.7361
2.278748867	96.406
2.277747636	96.6326
2.276747284	96.7283
2.275747811	96.6169
2.274749215	96.5935
2.273751494	96.6736
2.272754649	96.7029
2.271758677	96.6736
2.270763578	96.613
2.269769866	96.6091
2.268776508	96.6091
2.267784019	96.6873
2.266792398	96.6794
2.265801644	96.8201
2.264811756	96.6794
2.263822732	96.738
2.262834571	96.949
2.261847273	96.8513
2.260860836	96.7107
2.259875259	96.8513
2.258890541	96.7927
2.257906681	96.7224
2.256923678	96.7693
2.25594153	96.7576
2.254960236	97.0232
2.253979796	96.8865
2.253000208	96.8552
2.252021471	96.8005
2.251043584	96.8474
2.250066546	96.7458
2.249090355	96.7185
2.248115012	96.6794
2.247140514	96.7302
2.246167365	96.7107
2.245194554	96.7498
2.244222586	96.7107
2.243251458	96.7615
2.242281171	96.7537
2.241311723	96.7146
2.240343113	96.5935
2.23937534	96.7224
2.238408402	96.6755
2.237442299	96.6443
2.23647703	96.6208
2.235512593	96.8318
2.234548988	96.8396
2.233586213	96.6794
2.232624267	96.7771
2.231663149	96.7654
2.230702859	96.8591
2.229743394	96.6013
2.228784755	96.6833
2.22782694	96.8279
2.226869947	96.8005
2.225913777	96.5701
2.224958427	96.5583
2.224003896	96.4998
2.223050679	96.5076
2.222097785	96.7185
2.221145707	96.6638
2.220194445	96.6599
2.219243997	96.7185
2.218294362	96.7185
2.21734554	96.6716
2.21639753	96.7498
2.215450329	96.7224
2.214503938	96.6638
2.213558355	96.7185
2.212613579	96.6873
2.211669609	96.574
2.210726445	96.5427
2.209784084	96.6443
2.208842527	96.6638
2.207901771	96.5701
2.206961817	96.7029
2.206022662	96.5974
2.205084307	96.6755
2.204146749	96.6873
2.203209989	96.6794
2.202274024	96.8005
2.201338854	96.7302
2.200404963	96.656
2.199471379	96.6873
2.198538587	96.7419
2.197606587	96.7537
2.196675376	96.7068
2.195744954	96.7419
2.194815319	96.7107
2.193886472	96.7771
2.192958411	96.7693
2.192031134	96.7693
2.191104641	96.7654
2.190178931	96.5818
2.189254003	96.5974
2.188329856	96.7029
2.187406488	96.7966
2.1864839	96.7029
2.185562567	96.6873
2.184641533	96.6716
2.183721275	96.781
2.182801792	96.7146
2.181883083	96.5349
2.180965147	96.4138
2.180047983	96.6169
2.17913159	96.5466
2.178215967	96.5544
2.177301113	96.4099
2.176387028	96.4763
2.175473709	96.5544
2.174561157	96.6248
2.17364937	96.656
2.172738348	96.5857
2.171828089	96.7732
2.170918592	96.781
2.170009856	96.7537
2.169101881	96.7029
2.168194666	96.6716
2.167288209	96.8279
2.166382509	96.6599
2.165477567	96.5974
2.16457338	96.8279
2.163670416	96.8044
2.162767737	96.824
2.161865811	96.9451
2.160964637	96.656
2.160064214	96.7341
2.159164542	96.7849
2.158265618	96.8982
2.157367442	96.7693
2.156470014	96.7185
2.155573332	96.8435
2.154677395	96.738
2.153782203	96.6013
2.152887754	96.4255
2.151994048	96.5818
2.151101084	96.5818
2.150208861	96.4685
2.149317377	96.3318
2.148426632	96.3435
2.147536625	96.3943
2.146647355	96.4607
2.145758822	96.5662
2.144871024	96.6873
2.14398396	96.7029
2.143097629	96.7068
2.14221249	96.7185
2.141327623	96.7068
2.140443487	96.8513
2.139560081	96.8357
2.138677403	96.5349
2.137795454	96.4919
2.136914232	96.6482
2.136033736	96.656
2.135153965	96.7732
2.134274919	96.6404
2.133396596	96.5349
2.132518995	96.4294
2.131642117	96.656
2.130765959	96.6794
2.129890521	96.6287
2.129015803	96.5505
2.128141802	96.5701
2.127268519	96.7537
2.126395952	96.4919
2.125524101	96.4568
2.124652964	96.5701
2.123782542	96.4529
2.122912832	96.3435
2.122043834	96.4294
2.121175997	96.6287
2.12030842	96.7966
2.119441553	96.8044
2.118575394	96.6716
2.117709942	96.6287
2.116845198	96.8123
2.115981159	96.6169
2.115117826	96.5232
2.114255197	96.5935
2.113393271	96.7185
2.112532047	96.6404
2.111671525	96.8162
2.110811704	96.8201
2.109952583	96.6013
2.109094161	96.4998
2.108236437	96.6482
2.107379855	96.7224
2.106523524	96.5623
2.105667889	96.2732
2.104812949	96.2107
2.103958703	96.3044
2.103105151	96.2849
2.10225229	96.3787
2.101400121	96.6599
2.100548642	96.6091
2.099697853	96.6873
2.098847754	96.5232
2.097998342	96.613
2.097149617	96.6599
2.096301579	96.7693
2.095454226	96.8201
2.094607559	96.4998
2.093761575	96.5349
2.092916274	96.8005
2.092071655	96.8943
2.091227718	96.6013
2.090384461	96.8123
2.089541885	96.7068
2.088699987	96.6443
2.087858767	96.488
2.08701866	96.7693
2.086178794	96.8162
2.085339604	96.6912
2.084501088	96.6873
2.083663247	96.5935
2.082826078	96.6912
2.081989583	96.7068
2.081153758	96.4568
2.080318605	96.2263
2.079484122	96.2263


