Name: 62231.15
Type: Soil
Class: Lunar
Subclass: Highlands
Particle Size: Fine
Sample No.: 62231.15
Owner: JHU
Wavelength range: IR
Origin: Apollo 16 landing site via the NASA Lunar Sample Repository at Johnson 
Space Center, Houston, TX.
Description:  Chemistry is not available for this extra sample, but it appears 
to be one of the relatively less aluminous soils at the Apollo 16 site from its 
spectrum (i.e., it resembles suite 16b samples, such as 67941, 61241, and 68501), but 
has a very great exposure age (Is/FeO=91).


Measurement:  Directional (10 degree) hemispherical reflectance
First Column:  X
Second Column:  Y
X Units:  Wavelength (micrometers)
Y Units:  Reflectance (percent)
First X Value:  14.011
Last X Value:  2.079
Number of X Values:  2124
Additional information:  None

14.011	0.74785
13.973	0.75375
13.936	0.70000
13.899	0.72705
13.861	0.73415
13.824	0.81210
13.788	0.79125
13.751	0.84500
13.715	0.85655
13.679	0.84090
13.643	0.87050
13.607	0.94680
13.571	0.93235
13.536	0.93610
13.500	0.98685
13.465	1.0029
13.430	0.99860
13.396	1.0275
13.361	1.0808
13.327	1.0976
13.293	1.0897
13.259	1.1030
13.225	1.1234
13.191	1.1148
13.158	1.0969
13.124	1.1033
13.091	1.0965
13.058	1.1375
13.026	1.1503
12.993	1.1603
12.960	1.1819
12.928	1.1929
12.896	1.2295
12.864	1.2742
12.832	1.2986
12.800	1.3540
12.769	1.4295
12.737	1.5134
12.706	1.5714
12.675	1.6514
12.644	1.7196
12.614	1.7887
12.583	1.8552
12.552	1.9089
12.522	1.9337
12.492	1.9986
12.462	2.0608
12.432	2.0918
12.402	2.1246
12.373	2.1898
12.343	2.2405
12.314	2.2842
12.285	2.3020
12.256	2.3190
12.227	2.3235
12.198	2.3170
12.169	2.3247
12.141	2.3114
12.113	2.3087
12.084	2.3050
12.056	2.2856
12.028	2.2908
12.000	2.2594
11.973	2.2292
11.945	2.2322
11.918	2.2259
11.890	2.2180
11.863	2.1858
11.836	2.1863
11.809	2.2232
11.782	2.2246
11.755	2.2218
11.729	2.1888
11.702	2.1806
11.676	2.2007
11.650	2.2150
11.624	2.2152
11.598	2.2130
11.572	2.1962
11.546	2.2091
11.520	2.2299
11.495	2.2053
11.469	2.2000
11.444	2.2275
11.419	2.2557
11.394	2.2545
11.369	2.2299
11.344	2.2165
11.319	2.2215
11.294	2.2068
11.270	2.2001
11.245	2.2129
11.221	2.2462
11.197	2.2487
11.173	2.2225
11.149	2.2190
11.125	2.2308
11.101	2.2123
11.077	2.2144
11.054	2.2434
11.030	2.2199
11.007	2.2095
10.983	2.2206
10.960	2.2617
10.937	2.2725
10.914	2.2719
10.891	2.2614
10.868	2.2649
10.846	2.2722
10.823	2.2718
10.800	2.2816
10.778	2.2988
10.755	2.2758
10.733	2.2498
10.711	2.2386
10.689	2.2313
10.667	2.2117
10.645	2.2036
10.623	2.1586
10.602	2.1352
10.580	2.1344
10.558	2.1258
10.537	2.1048
10.516	2.0992
10.494	2.0816
10.473	2.0392
10.452	1.9918
10.431	1.9648
10.410	1.9393
10.389	1.9204
10.368	1.8540
10.348	1.8284
10.327	1.8252
10.306	1.7761
10.286	1.7339
10.266	1.7017
10.245	1.6586
10.225	1.6535
10.205	1.6208
10.185	1.6109
10.165	1.6010
10.145	1.6000
10.125	1.5975
10.106	1.5896
10.086	1.5400
10.066	1.4988
10.047	1.4705
10.027	1.4876
10.008	1.4806
9.9887	1.4664
9.9695	1.4510
9.9504	1.4337
9.9313	1.4404
9.9123	1.4351
9.8934	1.4162
9.8746	1.4154
9.8558	1.4093
9.8371	1.4218
9.8185	1.4209
9.7999	1.4045
9.7814	1.3809
9.7630	1.4135
9.7447	1.4358
9.7264	1.4079
9.7082	1.3869
9.6900	1.3817
9.6719	1.3553
9.6539	1.3157
9.6360	1.2931
9.6181	1.3196
9.6003	1.3107
9.5825	1.2961
9.5649	1.2845
9.5472	1.2407
9.5297	1.2156
9.5122	1.2177
9.4948	1.2035
9.4774	1.1928
9.4601	1.1732
9.4429	1.1521
9.4257	1.1308
9.4086	1.1381
9.3916	1.1280
9.3746	1.0963
9.3577	1.0857
9.3408	1.1016
9.3240	1.1105
9.3073	1.1177
9.2906	1.1256
9.2740	1.1310
9.2574	1.1283
9.2409	1.1135
9.2245	1.1069
9.2081	1.1268
9.1918	1.1322
9.1755	1.1347
9.1593	1.1682
9.1431	1.1815
9.1270	1.1571
9.1110	1.1869
9.0950	1.1553
9.0791	1.1466
9.0632	1.1814
9.0474	1.1859
9.0316	1.1683
9.0159	1.1525
9.0003	1.1406
8.9847	1.1424
8.9691	1.1588
8.9536	1.1490
8.9382	1.1112
8.9228	1.1204
8.9075	1.1255
8.8922	1.1259
8.8770	1.0984
8.8618	1.0781
8.8467	1.0850
8.8316	1.1016
8.8166	1.0987
8.8016	1.0944
8.7867	1.1085
8.7718	1.1000
8.7570	1.0922
8.7422	1.0998
8.7275	1.1031
8.7129	1.1042
8.6982	1.1030
8.6837	1.0749
8.6692	1.0468
8.6547	1.0583
8.6403	1.0608
8.6259	1.0410
8.6116	1.0118
8.5973	0.96950
8.5830	0.93735
8.5688	0.95145
8.5547	0.94560
8.5406	0.92525
8.5266	0.90870
8.5126	0.88380
8.4986	0.84495
8.4847	0.81205
8.4708	0.78840
8.4570	0.77065
8.4432	0.76250
8.4295	0.73965
8.4158	0.68270
8.4022	0.63455
8.3886	0.61010
8.3750	0.59305
8.3615	0.57760
8.3481	0.54640
8.3347	0.50365
8.3213	0.47265
8.3079	0.45850
8.2946	0.45935
8.2814	0.44785
8.2682	0.40990
8.2550	0.39350
8.2419	0.40280
8.2288	0.41320
8.2158	0.41165
8.2028	0.40475
8.1898	0.41225
8.1769	0.41680
8.1640	0.42065
8.1512	0.42695
8.1384	0.46220
8.1256	0.48310
8.1129	0.48720
8.1002	0.53635
8.0876	0.58920
8.0750	0.59605
8.0624	0.62340
8.0499	0.66845
8.0374	0.70040
8.0250	0.73650
8.0126	0.80470
8.0002	0.86060
7.9879	0.90310
7.9756	0.96025
7.9634	1.0258
7.9512	1.0864
7.9390	1.1490
7.9268	1.1963
7.9147	1.2715
7.9027	1.3626
7.8906	1.4332
7.8786	1.5024
7.8667	1.5846
7.8548	1.6751
7.8429	1.7531
7.8310	1.8194
7.8192	1.8968
7.8075	1.9847
7.7957	2.0673
7.7840	2.1398
7.7723	2.2422
7.7607	2.3451
7.7491	2.4071
7.7375	2.4899
7.7260	2.6058
7.7145	2.7035
7.7031	2.7883
7.6916	2.8780
7.6802	2.9783
7.6689	3.0833
7.6575	3.1807
7.6462	3.2495
7.6350	3.3321
7.6238	3.4332
7.6126	3.5407
7.6014	3.6369
7.5903	3.7343
7.5792	3.8183
7.5681	3.9024
7.5571	4.0208
7.5461	4.1044
7.5351	4.1737
7.5242	4.2796
7.5133	4.3939
7.5024	4.4782
7.4916	4.5483
7.4807	4.6570
7.4700	4.7698
7.4592	4.8672
7.4485	4.9522
7.4378	5.0370
7.4272	5.1361
7.4165	5.2346
7.4059	5.3144
7.3954	5.3953
7.3848	5.5060
7.3743	5.5979
7.3639	5.6845
7.3534	5.7722
7.3430	5.8584
7.3326	5.9634
7.3223	6.0692
7.3119	6.1505
7.3016	6.2273
7.2914	6.3141
7.2811	6.3864
7.2709	6.4714
7.2607	6.5410
7.2506	6.6117
7.2404	6.7040
7.2303	6.7875
7.2203	6.8725
7.2102	6.9477
7.2002	7.0142
7.1902	7.0799
7.1803	7.1625
7.1703	7.2422
7.1604	7.3252
7.1506	7.4034
7.1407	7.4685
7.1309	7.5266
7.1211	7.5841
7.1113	7.6633
7.1016	7.7245
7.0919	7.7920
7.0822	7.8643
7.0725	7.9285
7.0629	7.9867
7.0533	8.0617
7.0437	8.1459
7.0341	8.1906
7.0246	8.2495
7.0151	8.3052
7.0056	8.3573
6.9962	8.4404
6.9867	8.5102
6.9773	8.5602
6.9679	8.5994
6.9586	8.6516
6.9493	8.7100
6.9400	8.7797
6.9307	8.8287
6.9214	8.8632
6.9122	8.8835
6.9030	8.9404
6.8938	9.0149
6.8847	9.0617
6.8755	9.1052
6.8664	9.1464
6.8573	9.1665
6.8483	9.2105
6.8393	9.2425
6.8302	9.2626
6.8213	9.2991
6.8123	9.3506
6.8034	9.3959
6.7944	9.4316
6.7855	9.4668
6.7767	9.5095
6.7678	9.5523
6.7590	9.5943
6.7502	9.6516
6.7414	9.6682
6.7327	9.6785
6.7239	9.7287
6.7152	9.7718
6.7065	9.7824
6.6979	9.7956
6.6892	9.8132
6.6806	9.8503
6.6720	9.8710
6.6634	9.8844
6.6549	9.9171
6.6464	9.9418
6.6378	9.9637
6.6294	9.9909
6.6209	10.023
6.6124	10.051
6.6040	10.099
6.5956	10.133
6.5872	10.164
6.5789	10.197
6.5705	10.231
6.5622	10.268
6.5539	10.319
6.5456	10.354
6.5374	10.387
6.5292	10.430
6.5209	10.471
6.5128	10.499
6.5046	10.534
6.4964	10.565
6.4883	10.604
6.4802	10.620
6.4721	10.643
6.4640	10.707
6.4560	10.766
6.4480	10.804
6.4399	10.829
6.4320	10.846
6.4240	10.878
6.4160	10.893
6.4081	10.901
6.4002	10.914
6.3923	10.914
6.3844	10.922
6.3766	10.949
6.3687	10.935
6.3609	10.934
6.3531	10.953
6.3454	10.962
6.3376	10.991
6.3299	11.003
6.3221	10.992
6.3144	11.011
6.3068	11.032
6.2991	11.056
6.2914	11.073
6.2838	11.099
6.2762	11.133
6.2686	11.162
6.2611	11.186
6.2535	11.209
6.2460	11.209
6.2385	11.214
6.2310	11.255
6.2235	11.280
6.2160	11.286
6.2086	11.301
6.2011	11.328
6.1937	11.343
6.1863	11.360
6.1790	11.370
6.1716	11.375
6.1643	11.400
6.1570	11.433
6.1496	11.461
6.1424	11.479
6.1351	11.501
6.1278	11.525
6.1206	11.570
6.1134	11.620
6.1062	11.631
6.0990	11.648
6.0918	11.679
6.0847	11.692
6.0776	11.707
6.0704	11.748
6.0633	11.762
6.0563	11.798
6.0492	11.834
6.0421	11.843
6.0351	11.874
6.0281	11.911
6.0211	11.972
6.0141	12.031
6.0071	12.085
6.0002	12.150
5.9932	12.230
5.9863	12.330
5.9794	12.410
5.9725	12.484
5.9657	12.561
5.9588	12.651
5.9520	12.752
5.9451	12.856
5.9383	12.957
5.9315	13.031
5.9247	13.102
5.9180	13.194
5.9112	13.299
5.9045	13.395
5.8978	13.501
5.8911	13.579
5.8844	13.666
5.8777	13.761
5.8711	13.840
5.8644	13.936
5.8578	14.036
5.8512	14.109
5.8446	14.182
5.8380	14.272
5.8314	14.379
5.8249	14.489
5.8184	14.577
5.8118	14.652
5.8053	14.725
5.7988	14.807
5.7923	14.915
5.7859	14.995
5.7794	15.058
5.7730	15.133
5.7666	15.214
5.7602	15.282
5.7538	15.353
5.7474	15.408
5.7410	15.478
5.7347	15.555
5.7283	15.593
5.7220	15.614
5.7157	15.675
5.7094	15.741
5.7031	15.775
5.6969	15.792
5.6906	15.824
5.6844	15.875
5.6782	15.905
5.6719	15.937
5.6657	15.975
5.6596	16.024
5.6534	16.076
5.6472	16.134
5.6411	16.195
5.6349	16.229
5.6288	16.276
5.6227	16.341
5.6166	16.408
5.6106	16.452
5.6045	16.498
5.5984	16.556
5.5924	16.594
5.5864	16.626
5.5804	16.667
5.5744	16.713
5.5684	16.734
5.5624	16.741
5.5564	16.770
5.5505	16.800
5.5445	16.804
5.5386	16.806
5.5327	16.813
5.5268	16.812
5.5209	16.798
5.5151	16.800
5.5092	16.811
5.5033	16.805
5.4975	16.796
5.4917	16.806
5.4859	16.829
5.4801	16.844
5.4743	16.839
5.4685	16.838
5.4628	16.859
5.4570	16.888
5.4513	16.927
5.4455	16.964
5.4398	16.978
5.4341	17.005
5.4284	17.061
5.4228	17.121
5.4171	17.161
5.4114	17.208
5.4058	17.285
5.4002	17.357
5.3945	17.410
5.3889	17.467
5.3833	17.533
5.3778	17.619
5.3722	17.700
5.3666	17.754
5.3611	17.820
5.3555	17.875
5.3500	17.936
5.3445	18.007
5.3390	18.063
5.3335	18.109
5.3280	18.139
5.3225	18.175
5.3171	18.234
5.3116	18.299
5.3062	18.361
5.3008	18.415
5.2954	18.479
5.2900	18.547
5.2846	18.604
5.2792	18.660
5.2738	18.720
5.2684	18.781
5.2631	18.866
5.2578	18.944
5.2524	19.007
5.2471	19.072
5.2418	19.122
5.2365	19.200
5.2312	19.280
5.2260	19.352
5.2207	19.413
5.2154	19.479
5.2102	19.546
5.2050	19.627
5.1998	19.703
5.1945	19.762
5.1893	19.835
5.1842	19.912
5.1790	19.980
5.1738	20.060
5.1686	20.139
5.1635	20.214
5.1584	20.295
5.1532	20.386
5.1481	20.483
5.1430	20.575
5.1379	20.659
5.1328	20.750
5.1277	20.839
5.1227	20.927
5.1176	21.019
5.1126	21.092
5.1075	21.164
5.1025	21.260
5.0975	21.338
5.0925	21.396
5.0875	21.462
5.0825	21.545
5.0775	21.603
5.0726	21.676
5.0676	21.751
5.0627	21.829
5.0577	21.906
5.0528	21.986
5.0479	22.077
5.0430	22.166
5.0380	22.246
5.0332	22.310
5.0283	22.392
5.0234	22.485
5.0185	22.567
5.0137	22.658
5.0088	22.742
5.0040	22.814
4.9992	22.906
4.9944	22.992
4.9896	23.068
4.9848	23.148
4.9800	23.215
4.9752	23.293
4.9704	23.375
4.9657	23.458
4.9609	23.551
4.9562	23.650
4.9514	23.711
4.9467	23.764
4.9420	23.856
4.9373	23.941
4.9326	24.012
4.9279	24.093
4.9232	24.195
4.9186	24.272
4.9139	24.342
4.9092	24.420
4.9046	24.492
4.9000	24.571
4.8953	24.638
4.8907	24.714
4.8861	24.795
4.8815	24.855
4.8769	24.927
4.8723	25.009
4.8678	25.082
4.8632	25.163
4.8586	25.230
4.8541	25.312
4.8495	25.394
4.8450	25.462
4.8405	25.517
4.8360	25.576
4.8315	25.647
4.8270	25.724
4.8225	25.806
4.8180	25.854
4.8135	25.915
4.8090	25.991
4.8046	26.056
4.8001	26.104
4.7957	26.159
4.7913	26.216
4.7868	26.263
4.7824	26.322
4.7780	26.388
4.7736	26.454
4.7692	26.497
4.7648	26.556
4.7605	26.619
4.7561	26.671
4.7517	26.734
4.7474	26.786
4.7431	26.851
4.7387	26.908
4.7344	26.970
4.7301	27.052
4.7258	27.120
4.7215	27.190
4.7172	27.256
4.7129	27.321
4.7086	27.386
4.7043	27.440
4.7000	27.505
4.6958	27.584
4.6915	27.666
4.6873	27.720
4.6831	27.760
4.6788	27.829
4.6746	27.887
4.6704	27.939
4.6662	27.995
4.6620	28.052
4.6578	28.108
4.6536	28.163
4.6495	28.235
4.6453	28.303
4.6411	28.367
4.6370	28.450
4.6328	28.532
4.6287	28.606
4.6246	28.671
4.6205	28.738
4.6163	28.825
4.6122	28.914
4.6081	28.974
4.6040	29.037
4.6000	29.097
4.5959	29.158
4.5918	29.233
4.5877	29.304
4.5837	29.365
4.5796	29.416
4.5756	29.464
4.5716	29.521
4.5675	29.586
4.5635	29.635
4.5595	29.661
4.5555	29.722
4.5515	29.788
4.5475	29.835
4.5435	29.863
4.5395	29.905
4.5356	29.963
4.5316	30.013
4.5276	30.051
4.5237	30.079
4.5197	30.126
4.5158	30.172
4.5119	30.197
4.5080	30.240
4.5040	30.288
4.5001	30.304
4.4962	30.315
4.4923	30.354
4.4884	30.394
4.4846	30.426
4.4807	30.461
4.4768	30.477
4.4730	30.498
4.4691	30.518
4.4652	30.543
4.4614	30.577
4.4576	30.583
4.4537	30.596
4.4499	30.632
4.4461	30.640
4.4423	30.645
4.4385	30.665
4.4347	30.674
4.4309	30.681
4.4271	30.704
4.4233	30.716
4.4196	30.723
4.4158	30.716
4.4120	30.723
4.4083	30.755
4.4045	30.775
4.4008	30.800
4.3971	30.829
4.3934	30.825
4.3896	30.849
4.3859	30.900
4.3822	30.916
4.3785	30.944
4.3748	30.947
4.3711	30.962
4.3674	31.012
4.3638	31.058
4.3601	31.087
4.3564	31.095
4.3528	31.109
4.3491	31.134
4.3455	31.176
4.3418	31.208
4.3382	31.230
4.3346	31.257
4.3310	31.281
4.3273	31.300
4.3237	31.329
4.3201	31.359
4.3165	31.404
4.3129	31.436
4.3094	31.459
4.3058	31.484
4.3022	31.524
4.2986	31.559
4.2951	31.601
4.2915	31.643
4.2880	31.673
4.2844	31.688
4.2809	31.705
4.2774	31.729
4.2738	31.761
4.2703	31.787
4.2668	31.821
4.2633	31.830
4.2598	31.839
4.2563	31.863
4.2528	31.872
4.2493	31.894
4.2458	31.928
4.2424	31.959
4.2389	31.980
4.2354	31.983
4.2320	31.983
4.2285	32.003
4.2251	32.008
4.2216	32.020
4.2182	32.021
4.2148	32.018
4.2113	32.051
4.2079	32.067
4.2045	32.059
4.2011	32.062
4.1977	32.076
4.1943	32.091
4.1909	32.091
4.1875	32.104
4.1841	32.112
4.1808	32.106
4.1774	32.111
4.1740	32.124
4.1707	32.114
4.1673	32.111
4.1640	32.110
4.1606	32.119
4.1573	32.144
4.1540	32.155
4.1506	32.154
4.1473	32.174
4.1440	32.198
4.1407	32.196
4.1374	32.191
4.1341	32.172
4.1308	32.157
4.1275	32.172
4.1242	32.197
4.1209	32.194
4.1177	32.195
4.1144	32.202
4.1111	32.208
4.1079	32.205
4.1046	32.196
4.1014	32.203
4.0981	32.208
4.0949	32.204
4.0917	32.214
4.0884	32.234
4.0852	32.232
4.0820	32.232
4.0788	32.236
4.0756	32.230
4.0724	32.233
4.0692	32.251
4.0660	32.245
4.0628	32.238
4.0596	32.242
4.0565	32.255
4.0533	32.261
4.0501	32.277
4.0470	32.282
4.0438	32.266
4.0406	32.261
4.0375	32.271
4.0344	32.271
4.0312	32.273
4.0281	32.296
4.0250	32.298
4.0218	32.286
4.0187	32.281
4.0156	32.265
4.0125	32.267
4.0094	32.276
4.0063	32.278
4.0032	32.285
4.0001	32.299
3.9970	32.313
3.9940	32.301
3.9909	32.299
3.9878	32.317
3.9847	32.306
3.9817	32.300
3.9786	32.292
3.9756	32.299
3.9725	32.319
3.9695	32.305
3.9665	32.297
3.9634	32.297
3.9604	32.289
3.9574	32.292
3.9544	32.303
3.9513	32.318
3.9483	32.313
3.9453	32.310
3.9423	32.311
3.9393	32.297
3.9363	32.287
3.9333	32.302
3.9304	32.312
3.9274	32.295
3.9244	32.263
3.9214	32.270
3.9185	32.273
3.9155	32.277
3.9126	32.279
3.9096	32.260
3.9067	32.246
3.9037	32.244
3.9008	32.251
3.8979	32.255
3.8949	32.238
3.8920	32.245
3.8891	32.249
3.8862	32.246
3.8833	32.229
3.8804	32.227
3.8775	32.238
3.8746	32.233
3.8717	32.220
3.8688	32.198
3.8659	32.188
3.8630	32.190
3.8601	32.191
3.8573	32.194
3.8544	32.184
3.8515	32.179
3.8487	32.184
3.8458	32.171
3.8430	32.144
3.8401	32.144
3.8373	32.151
3.8344	32.141
3.8316	32.129
3.8288	32.113
3.8259	32.113
3.8231	32.116
3.8203	32.099
3.8175	32.084
3.8147	32.102
3.8119	32.106
3.8091	32.089
3.8063	32.086
3.8035	32.076
3.8007	32.041
3.7979	32.014
3.7951	32.020
3.7924	32.039
3.7896	32.040
3.7868	32.025
3.7841	32.021
3.7813	32.006
3.7785	31.989
3.7758	31.971
3.7730	31.941
3.7703	31.937
3.7676	31.966
3.7648	31.958
3.7621	31.933
3.7594	31.912
3.7566	31.906
3.7539	31.897
3.7512	31.878
3.7485	31.867
3.7458	31.873
3.7431	31.861
3.7404	31.854
3.7377	31.849
3.7350	31.841
3.7323	31.838
3.7296	31.818
3.7269	31.803
3.7242	31.817
3.7216	31.792
3.7189	31.751
3.7162	31.747
3.7136	31.749
3.7109	31.743
3.7083	31.734
3.7056	31.718
3.7030	31.699
3.7003	31.703
3.6977	31.684
3.6950	31.664
3.6924	31.651
3.6898	31.653
3.6872	31.659
3.6845	31.631
3.6819	31.599
3.6793	31.574
3.6767	31.572
3.6741	31.576
3.6715	31.585
3.6689	31.561
3.6663	31.515
3.6637	31.504
3.6611	31.497
3.6585	31.504
3.6560	31.520
3.6534	31.500
3.6508	31.479
3.6482	31.470
3.6457	31.452
3.6431	31.442
3.6406	31.429
3.6380	31.423
3.6355	31.421
3.6329	31.423
3.6304	31.406
3.6278	31.367
3.6253	31.349
3.6227	31.346
3.6202	31.343
3.6177	31.335
3.6152	31.332
3.6127	31.320
3.6101	31.298
3.6076	31.271
3.6051	31.248
3.6026	31.242
3.6001	31.246
3.5976	31.220
3.5951	31.207
3.5926	31.219
3.5901	31.203
3.5876	31.174
3.5852	31.178
3.5827	31.165
3.5802	31.128
3.5777	31.117
3.5753	31.121
3.5728	31.113
3.5704	31.108
3.5679	31.085
3.5654	31.061
3.5630	31.084
3.5605	31.075
3.5581	31.058
3.5557	31.060
3.5532	31.043
3.5508	31.012
3.5484	30.990
3.5459	30.983
3.5435	30.975
3.5411	30.962
3.5387	30.937
3.5363	30.913
3.5338	30.915
3.5314	30.914
3.5290	30.911
3.5266	30.931
3.5242	30.923
3.5218	30.899
3.5195	30.877
3.5171	30.864
3.5147	30.886
3.5123	30.868
3.5099	30.847
3.5075	30.847
3.5052	30.862
3.5028	30.853
3.5004	30.804
3.4981	30.795
3.4957	30.806
3.4934	30.770
3.4910	30.730
3.4887	30.718
3.4863	30.717
3.4840	30.718
3.4816	30.712
3.4793	30.694
3.4770	30.671
3.4746	30.639
3.4723	30.632
3.4700	30.636
3.4677	30.637
3.4653	30.622
3.4630	30.583
3.4607	30.560
3.4584	30.560
3.4561	30.552
3.4538	30.555
3.4515	30.587
3.4492	30.557
3.4469	30.532
3.4446	30.526
3.4423	30.496
3.4400	30.484
3.4378	30.498
3.4355	30.489
3.4332	30.463
3.4309	30.472
3.4287	30.467
3.4264	30.446
3.4241	30.420
3.4219	30.415
3.4196	30.397
3.4174	30.381
3.4151	30.378
3.4129	30.369
3.4106	30.359
3.4084	30.354
3.4061	30.338
3.4039	30.316
3.4017	30.286
3.3994	30.258
3.3972	30.242
3.3950	30.240
3.3928	30.220
3.3906	30.187
3.3883	30.178
3.3861	30.173
3.3839	30.150
3.3817	30.141
3.3795	30.119
3.3773	30.087
3.3751	30.084
3.3729	30.088
3.3707	30.044
3.3685	29.995
3.3663	30.014
3.3641	30.008
3.3620	29.974
3.3598	29.942
3.3576	29.928
3.3554	29.923
3.3533	29.903
3.3511	29.879
3.3489	29.871
3.3468	29.837
3.3446	29.813
3.3425	29.807
3.3403	29.799
3.3382	29.769
3.3360	29.743
3.3339	29.723
3.3317	29.697
3.3296	29.682
3.3274	29.684
3.3253	29.650
3.3232	29.633
3.3210	29.636
3.3189	29.629
3.3168	29.627
3.3147	29.627
3.3126	29.580
3.3104	29.559
3.3083	29.574
3.3062	29.562
3.3041	29.536
3.3020	29.526
3.2999	29.492
3.2978	29.478
3.2957	29.491
3.2936	29.471
3.2915	29.445
3.2894	29.470
3.2874	29.454
3.2853	29.388
3.2832	29.362
3.2811	29.374
3.2790	29.365
3.2770	29.353
3.2749	29.317
3.2728	29.306
3.2708	29.295
3.2687	29.262
3.2666	29.257
3.2646	29.254
3.2625	29.266
3.2605	29.246
3.2584	29.222
3.2564	29.217
3.2543	29.201
3.2523	29.179
3.2503	29.163
3.2482	29.154
3.2462	29.154
3.2442	29.133
3.2421	29.089
3.2401	29.072
3.2381	29.070
3.2361	29.051
3.2340	29.023
3.2320	29.028
3.2300	29.034
3.2280	29.015
3.2260	28.984
3.2240	28.934
3.2220	28.918
3.2200	28.927
3.2180	28.910
3.2160	28.903
3.2140	28.900
3.2120	28.868
3.2100	28.830
3.2080	28.828
3.2060	28.829
3.2040	28.812
3.2021	28.789
3.2001	28.785
3.1981	28.754
3.1961	28.733
3.1942	28.725
3.1922	28.693
3.1902	28.673
3.1883	28.636
3.1863	28.647
3.1844	28.673
3.1824	28.661
3.1805	28.629
3.1785	28.597
3.1766	28.567
3.1746	28.546
3.1727	28.529
3.1707	28.542
3.1688	28.556
3.1669	28.517
3.1649	28.494
3.1630	28.480
3.1611	28.465
3.1591	28.457
3.1572	28.442
3.1553	28.409
3.1534	28.390
3.1515	28.401
3.1495	28.393
3.1476	28.332
3.1457	28.322
3.1438	28.347
3.1419	28.321
3.1400	28.309
3.1381	28.304
3.1362	28.286
3.1343	28.286
3.1324	28.265
3.1305	28.216
3.1286	28.199
3.1268	28.182
3.1249	28.191
3.1230	28.197
3.1211	28.175
3.1192	28.147
3.1174	28.133
3.1155	28.114
3.1136	28.110
3.1117	28.135
3.1099	28.115
3.1080	28.059
3.1061	28.049
3.1043	28.066
3.1024	28.065
3.1006	28.056
3.0987	28.043
3.0969	28.020
3.0950	28.004
3.0932	27.958
3.0913	27.946
3.0895	27.977
3.0876	27.973
3.0858	27.917
3.0840	27.903
3.0821	27.931
3.0803	27.911
3.0785	27.866
3.0766	27.866
3.0748	27.881
3.0730	27.862
3.0712	27.840
3.0694	27.809
3.0675	27.834
3.0657	27.831
3.0639	27.823
3.0621	27.835
3.0603	27.803
3.0585	27.777
3.0567	27.749
3.0549	27.738
3.0531	27.756
3.0513	27.751
3.0495	27.734
3.0477	27.719
3.0459	27.695
3.0441	27.702
3.0423	27.709
3.0406	27.691
3.0388	27.689
3.0370	27.655
3.0352	27.667
3.0334	27.670
3.0317	27.619
3.0299	27.595
3.0281	27.578
3.0264	27.559
3.0246	27.560
3.0228	27.545
3.0211	27.499
3.0193	27.532
3.0176	27.557
3.0158	27.534
3.0140	27.484
3.0123	27.477
3.0105	27.498
3.0088	27.476
3.0070	27.462
3.0053	27.454
3.0036	27.447
3.0018	27.401
3.0001	27.400
2.9984	27.411
2.9966	27.387
2.9949	27.369
2.9932	27.357
2.9914	27.352
2.9897	27.341
2.9880	27.314
2.9863	27.316
2.9845	27.308
2.9828	27.314
2.9811	27.338
2.9794	27.308
2.9777	27.262
2.9760	27.246
2.9743	27.214
2.9726	27.239
2.9709	27.279
2.9692	27.223
2.9675	27.193
2.9658	27.229
2.9641	27.255
2.9624	27.236
2.9607	27.184
2.9590	27.187
2.9573	27.172
2.9556	27.155
2.9539	27.171
2.9523	27.149
2.9506	27.105
2.9489	27.096
2.9472	27.121
2.9455	27.135
2.9439	27.107
2.9422	27.111
2.9405	27.139
2.9389	27.116
2.9372	27.100
2.9355	27.097
2.9339	27.083
2.9322	27.065
2.9306	27.081
2.9289	27.121
2.9272	27.100
2.9256	27.065
2.9239	27.060
2.9223	27.061
2.9207	27.072
2.9190	27.060
2.9174	27.058
2.9157	27.077
2.9141	27.070
2.9124	27.068
2.9108	27.009
2.9092	26.975
2.9075	27.026
2.9059	27.068
2.9043	27.042
2.9027	27.010
2.9010	26.988
2.8994	26.970
2.8978	26.969
2.8962	26.960
2.8946	26.961
2.8929	26.975
2.8913	26.993
2.8897	27.038
2.8881	27.009
2.8865	26.985
2.8849	26.977
2.8833	26.990
2.8817	26.941
2.8801	26.922
2.8785	26.947
2.8769	26.944
2.8753	26.960
2.8737	26.961
2.8721	26.941
2.8705	26.939
2.8689	26.961
2.8673	26.954
2.8658	26.935
2.8642	26.968
2.8626	26.958
2.8610	26.919
2.8594	26.919
2.8579	26.940
2.8563	26.934
2.8547	26.933
2.8531	26.936
2.8516	26.960
2.8500	26.941
2.8484	26.918
2.8469	26.928
2.8453	26.961
2.8437	26.962
2.8422	26.929
2.8406	26.913
2.8391	26.950
2.8375	26.955
2.8360	26.955
2.8344	26.977
2.8329	26.963
2.8313	26.967
2.8298	26.962
2.8282	26.968
2.8267	26.981
2.8252	26.999
2.8236	27.010
2.8221	27.009
2.8205	26.984
2.8190	26.999
2.8175	27.034
2.8159	27.011
2.8144	27.015
2.8129	27.047
2.8114	27.066
2.8098	27.074
2.8083	27.104
2.8068	27.154
2.8053	27.166
2.8038	27.153
2.8022	27.202
2.8007	27.241
2.7992	27.249
2.7977	27.265
2.7962	27.300
2.7947	27.319
2.7932	27.301
2.7917	27.351
2.7902	27.403
2.7887	27.428
2.7872	27.444
2.7857	27.438
2.7842	27.476
2.7827	27.508
2.7812	27.565
2.7797	27.601
2.7782	27.636
2.7767	27.679
2.7752	27.698
2.7738	27.720
2.7723	27.737
2.7708	27.764
2.7693	27.841
2.7678	27.877
2.7664	27.897
2.7649	27.986
2.7634	28.056
2.7619	28.101
2.7605	28.146
2.7590	28.187
2.7575	28.205
2.7561	28.232
2.7546	28.289
2.7531	28.338
2.7517	28.381
2.7502	28.397
2.7488	28.432
2.7473	28.492
2.7458	28.554
2.7444	28.612
2.7429	28.651
2.7415	28.682
2.7400	28.740
2.7386	28.777
2.7371	28.797
2.7357	28.827
2.7343	28.834
2.7328	28.902
2.7314	28.945
2.7299	28.942
2.7285	28.992
2.7271	29.065
2.7256	29.098
2.7242	29.099
2.7228	29.132
2.7213	29.172
2.7199	29.159
2.7185	29.139
2.7171	29.186
2.7156	29.226
2.7142	29.220
2.7128	29.224
2.7114	29.222
2.7100	29.232
2.7085	29.266
2.7071	29.291
2.7057	29.304
2.7043	29.321
2.7029	29.336
2.7015	29.323
2.7001	29.300
2.6987	29.291
2.6973	29.296
2.6959	29.309
2.6945	29.292
2.6931	29.266
2.6917	29.297
2.6903	29.314
2.6889	29.294
2.6875	29.314
2.6861	29.358
2.6847	29.350
2.6833	29.336
2.6819	29.348
2.6805	29.357
2.6791	29.340
2.6778	29.338
2.6764	29.357
2.6750	29.371
2.6736	29.360
2.6722	29.357
2.6709	29.395
2.6695	29.431
2.6681	29.464
2.6667	29.529
2.6654	29.509
2.6640	29.490
2.6626	29.480
2.6613	29.465
2.6599	29.465
2.6585	29.473
2.6572	29.465
2.6558	29.456
2.6545	29.437
2.6531	29.413
2.6517	29.408
2.6504	29.438
2.6490	29.435
2.6477	29.419
2.6463	29.405
2.6450	29.429
2.6436	29.420
2.6423	29.400
2.6409	29.392
2.6396	29.407
2.6382	29.414
2.6369	29.408
2.6356	29.383
2.6342	29.364
2.6329	29.354
2.6315	29.382
2.6302	29.417
2.6289	29.396
2.6275	29.366
2.6262	29.341
2.6249	29.337
2.6236	29.359
2.6222	29.355
2.6209	29.330
2.6196	29.312
2.6183	29.310
2.6169	29.299
2.6156	29.304
2.6143	29.292
2.6130	29.315
2.6117	29.300
2.6103	29.286
2.6090	29.283
2.6077	29.257
2.6064	29.267
2.6051	29.264
2.6038	29.242
2.6025	29.248
2.6012	29.218
2.5999	29.191
2.5986	29.215
2.5973	29.224
2.5960	29.225
2.5947	29.225
2.5934	29.194
2.5921	29.185
2.5908	29.219
2.5895	29.205
2.5882	29.155
2.5869	29.137
2.5856	29.144
2.5843	29.176
2.5830	29.181
2.5817	29.137
2.5805	29.105
2.5792	29.120
2.5779	29.136
2.5766	29.114
2.5753	29.092
2.5741	29.095
2.5728	29.088
2.5715	29.069
2.5702	29.083
2.5690	29.101
2.5677	29.090
2.5664	29.086
2.5651	29.059
2.5639	29.067
2.5626	29.050
2.5613	29.026
2.5601	29.025
2.5588	29.006
2.5575	28.995
2.5563	28.976
2.5550	28.954
2.5538	28.990
2.5525	28.991
2.5513	28.954
2.5500	28.915
2.5487	28.876
2.5475	28.904
2.5462	28.932
2.5450	28.927
2.5437	28.913
2.5425	28.897
2.5413	28.902
2.5400	28.900
2.5388	28.866
2.5375	28.835
2.5363	28.840
2.5350	28.861
2.5338	28.866
2.5326	28.852
2.5313	28.844
2.5301	28.834
2.5289	28.846
2.5276	28.847
2.5264	28.809
2.5252	28.777
2.5239	28.795
2.5227	28.798
2.5215	28.781
2.5202	28.778
2.5190	28.764
2.5178	28.716
2.5166	28.723
2.5154	28.742
2.5141	28.775
2.5129	28.744
2.5117	28.711
2.5105	28.700
2.5093	28.721
2.5081	28.722
2.5068	28.713
2.5056	28.682
2.5044	28.662
2.5032	28.677
2.5020	28.673
2.5008	28.645
2.4996	28.625
2.4984	28.635
2.4972	28.632
2.4960	28.639
2.4948	28.616
2.4936	28.591
2.4924	28.585
2.4912	28.589
2.4900	28.588
2.4888	28.579
2.4876	28.577
2.4864	28.559
2.4852	28.569
2.4840	28.592
2.4828	28.576
2.4816	28.516
2.4805	28.532
2.4793	28.541
2.4781	28.502
2.4769	28.503
2.4757	28.506
2.4745	28.468
2.4734	28.435
2.4722	28.446
2.4710	28.483
2.4698	28.476
2.4686	28.451
2.4675	28.451
2.4663	28.440
2.4651	28.432
2.4640	28.439
2.4628	28.431
2.4616	28.414
2.4604	28.363
2.4593	28.375
2.4581	28.400
2.4569	28.369
2.4558	28.375
2.4546	28.397
2.4535	28.395
2.4523	28.358
2.4511	28.324
2.4500	28.320
2.4488	28.294
2.4477	28.313
2.4465	28.329
2.4454	28.281
2.4442	28.244
2.4431	28.271
2.4419	28.301
2.4408	28.278
2.4396	28.272
2.4385	28.288
2.4373	28.254
2.4362	28.221
2.4350	28.194
2.4339	28.205
2.4327	28.205
2.4316	28.222
2.4305	28.199
2.4293	28.180
2.4282	28.176
2.4270	28.175
2.4259	28.174
2.4248	28.194
2.4236	28.188
2.4225	28.173
2.4214	28.157
2.4202	28.153
2.4191	28.139
2.4180	28.146
2.4169	28.131
2.4157	28.111
2.4146	28.089
2.4135	28.091
2.4124	28.089
2.4112	28.045
2.4101	28.021
2.4090	28.013
2.4079	28.011
2.4068	28.012
2.4056	28.045
2.4045	28.062
2.4034	28.042
2.4023	28.004
2.4012	27.974
2.4001	27.974
2.3990	27.985
2.3979	28.009
2.3967	28.019
2.3956	27.982
2.3945	27.945
2.3934	27.963
2.3923	27.960
2.3912	27.959
2.3901	27.955
2.3890	27.913
2.3879	27.910
2.3868	27.922
2.3857	27.920
2.3846	27.922
2.3835	27.926
2.3824	27.911
2.3813	27.862
2.3802	27.856
2.3791	27.881
2.3781	27.862
2.3770	27.836
2.3759	27.842
2.3748	27.846
2.3737	27.853
2.3726	27.848
2.3715	27.843
2.3704	27.815
2.3694	27.772
2.3683	27.783
2.3672	27.806
2.3661	27.781
2.3650	27.734
2.3640	27.734
2.3629	27.767
2.3618	27.765
2.3607	27.743
2.3597	27.739
2.3586	27.721
2.3575	27.684
2.3564	27.711
2.3554	27.706
2.3543	27.664
2.3532	27.660
2.3522	27.653
2.3511	27.655
2.3500	27.721
2.3490	27.743
2.3479	27.699
2.3468	27.666
2.3458	27.642
2.3447	27.634
2.3436	27.612
2.3426	27.584
2.3415	27.588
2.3405	27.589
2.3394	27.585
2.3384	27.521
2.3373	27.511
2.3363	27.554
2.3352	27.553
2.3342	27.583
2.3331	27.578
2.3321	27.552
2.3310	27.556
2.3300	27.533
2.3289	27.501
2.3279	27.479
2.3268	27.485
2.3258	27.505
2.3247	27.479
2.3237	27.452
2.3226	27.467
2.3216	27.496
2.3206	27.480
2.3195	27.444
2.3185	27.468
2.3175	27.465
2.3164	27.416
2.3154	27.431
2.3144	27.444
2.3133	27.411
2.3123	27.420
2.3113	27.410
2.3102	27.387
2.3092	27.383
2.3082	27.389
2.3071	27.375
2.3061	27.354
2.3051	27.373
2.3041	27.387
2.3030	27.328
2.3020	27.296
2.3010	27.301
2.3000	27.304
2.2990	27.306
2.2979	27.283
2.2969	27.259
2.2959	27.286
2.2949	27.296
2.2939	27.344
2.2929	27.307
2.2918	27.247
2.2908	27.239
2.2898	27.263
2.2888	27.225
2.2878	27.192
2.2868	27.207
2.2858	27.222
2.2848	27.220
2.2838	27.221
2.2828	27.192
2.2818	27.166
2.2808	27.129
2.2798	27.150
2.2787	27.173
2.2777	27.149
2.2767	27.138
2.2757	27.130
2.2747	27.112
2.2738	27.124
2.2728	27.142
2.2718	27.100
2.2708	27.035
2.2698	27.070
2.2688	27.110
2.2678	27.123
2.2668	27.108
2.2658	27.098
2.2648	27.087
2.2638	27.050
2.2628	27.006
2.2618	26.986
2.2609	27.002
2.2599	27.008
2.2589	26.987
2.2579	27.006
2.2569	27.006
2.2559	26.970
2.2550	26.984
2.2540	26.957
2.2530	26.929
2.2520	26.922
2.2510	26.900
2.2501	26.935
2.2491	26.960
2.2481	26.935
2.2471	26.896
2.2462	26.881
2.2452	26.929
2.2442	26.944
2.2433	26.900
2.2423	26.884
2.2413	26.883
2.2403	26.866
2.2394	26.843
2.2384	26.874
2.2374	26.849
2.2365	26.860
2.2355	26.842
2.2345	26.809
2.2336	26.799
2.2326	26.826
2.2317	26.815
2.2307	26.778
2.2297	26.766
2.2288	26.769
2.2278	26.804
2.2269	26.781
2.2259	26.737
2.2250	26.747
2.2240	26.744
2.2231	26.739
2.2221	26.717
2.2211	26.698
2.2202	26.698
2.2192	26.701
2.2183	26.683
2.2173	26.650
2.2164	26.699
2.2155	26.708
2.2145	26.641
2.2136	26.624
2.2126	26.639
2.2117	26.684
2.2107	26.673
2.2098	26.685
2.2088	26.698
2.2079	26.656
2.2070	26.632
2.2060	26.623
2.2051	26.630
2.2041	26.632
2.2032	26.588
2.2023	26.566
2.2013	26.572
2.2004	26.593
2.1995	26.590
2.1985	26.563
2.1976	26.561
2.1967	26.571
2.1957	26.567
2.1948	26.509
2.1939	26.475
2.1930	26.520
2.1920	26.536
2.1911	26.508
2.1902	26.472
2.1893	26.505
2.1883	26.551
2.1874	26.534
2.1865	26.523
2.1856	26.535
2.1846	26.516
2.1837	26.440
2.1828	26.424
2.1819	26.440
2.1810	26.454
2.1800	26.490
2.1791	26.480
2.1782	26.442
2.1773	26.411
2.1764	26.450
2.1755	26.468
2.1746	26.446
2.1736	26.429
2.1727	26.409
2.1718	26.363
2.1709	26.328
2.1700	26.346
2.1691	26.368
2.1682	26.331
2.1673	26.322
2.1664	26.351
2.1655	26.358
2.1646	26.377
2.1637	26.378
2.1628	26.360
2.1619	26.329
2.1610	26.277
2.1601	26.292
2.1592	26.303
2.1583	26.309
2.1574	26.322
2.1565	26.310
2.1556	26.270
2.1547	26.269
2.1538	26.264
2.1529	26.248
2.1520	26.230
2.1511	26.221
2.1502	26.230
2.1493	26.249
2.1484	26.230
2.1475	26.211
2.1466	26.226
2.1458	26.210
2.1449	26.150
2.1440	26.123
2.1431	26.148
2.1422	26.153
2.1413	26.175
2.1404	26.216
2.1396	26.133
2.1387	26.107
2.1378	26.139
2.1369	26.138
2.1360	26.143
2.1352	26.136
2.1343	26.094
2.1334	26.105
2.1325	26.101
2.1316	26.086
2.1308	26.134
2.1299	26.153
2.1290	26.082
2.1281	26.033
2.1273	26.060
2.1264	26.091
2.1255	26.061
2.1247	26.066
2.1238	26.027
2.1229	26.004
2.1220	26.035
2.1212	26.027
2.1203	26.075
2.1194	26.079
2.1186	26.029
2.1177	26.011
2.1168	25.993
2.1160	25.947
2.1151	25.912
2.1143	25.955
2.1134	25.990
2.1125	26.004
2.1117	26.029
2.1108	25.939
2.1100	25.919
2.1091	25.943
2.1082	25.920
2.1074	25.930
2.1065	25.931
2.1057	25.951
2.1048	25.929
2.1040	25.925
2.1031	25.919
2.1023	25.859
2.1014	25.882
2.1005	25.891
2.0997	25.864
2.0988	25.870
2.0980	25.878
2.0971	25.825
2.0963	25.793
2.0955	25.796
2.0946	25.793
2.0938	25.815
2.0929	25.822
2.0921	25.802
2.0912	25.812
2.0904	25.777
2.0895	25.766
2.0887	25.764
2.0879	25.797
2.0870	25.840
2.0862	25.844
2.0853	25.799
2.0845	25.783
2.0837	25.760
2.0828	25.774
2.0820	25.788
2.0812	25.735
2.0803	25.717
2.0795	25.728

