Name:  ALH 83102
Type:  Stony Meteorites
Class:  Carbonaceous chondrite
Subclass:  CM2
Particle Size:  0-75 micrometers
Sample No.:  ALH 83102
Owner:  JHU
Wavelength range:  IR
Origin:  Meteorite found in Antarctica in 1983..  Smithsonian sample USNM No. 
ALH 83102.45.
Description:  None.





Measurement:  Bidirectional reflectance
First Column:  X
Second Column:  Y
X Units:  Wavelength (micrometers)
Y Units:  Reflectance (percent)
First X Value:  25.044
Last X Value:  2.0795
Number of X Values:  2286
Additional information:  None

25.044	0.78420
24.924	0.74240
24.805	0.70210
24.686	0.67750
24.569	0.67280
24.454	0.68380
24.339	0.70040
24.225	0.71290
24.112	0.71850
24.001	0.72090
23.890	0.72580
23.781	0.73360
23.672	0.74120
23.564	0.74560
23.458	0.74410
23.352	0.73660
23.247	0.72440
23.144	0.71390
23.041	0.71190
22.939	0.71970
22.838	0.73460
22.738	0.75410
22.638	0.77540
22.540	0.79440
22.442	0.80690
22.345	0.81200
22.250	0.81230
22.154	0.80810
22.060	0.80000
21.967	0.79080
21.874	0.78270
21.782	0.77730
21.691	0.77340
21.601	0.77100
21.511	0.76780
21.422	0.76200
21.334	0.75120
21.247	0.73730
21.160	0.72340
21.074	0.71240
20.988	0.70630
20.904	0.70480
20.820	0.70610
20.737	0.70610
20.654	0.70170
20.572	0.69160
20.491	0.67700
20.410	0.65890
20.330	0.63940
20.251	0.62130
20.172	0.60500
20.094	0.59060
20.016	0.57710
19.939	0.56350
19.863	0.54960
19.787	0.53490
19.712	0.52080
19.637	0.50760
19.563	0.49540
19.489	0.48360
19.416	0.47090
19.344	0.45480
19.272	0.43480
19.201	0.41140
19.130	0.38620
19.059	0.36180
18.990	0.34160
18.920	0.32790
18.851	0.32030
18.783	0.31660
18.715	0.31470
18.648	0.31230
18.581	0.30740
18.515	0.30100
18.449	0.29590
18.384	0.29420
18.319	0.29660
18.254	0.30270
18.190	0.31100
18.126	0.31980
18.063	0.32640
18.001	0.32980
17.938	0.33080
17.876	0.32960
17.815	0.32690
17.754	0.32420
17.693	0.32320
17.633	0.32540
17.573	0.33030
17.514	0.33720
17.455	0.34470
17.396	0.35160
17.338	0.35640
17.280	0.35910
17.223	0.36110
17.166	0.36350
17.109	0.36720
17.053	0.37160
16.997	0.37650
16.942	0.38130
16.886	0.38550
16.832	0.38840
16.777	0.39040
16.723	0.39180
16.669	0.39280
16.616	0.39280
16.563	0.39280
16.510	0.39330
16.458	0.39480
16.406	0.39750
16.354	0.40090
16.302	0.40430
16.251	0.40650
16.200	0.40620
16.150	0.40380
16.100	0.40060
16.050	0.39820
16.000	0.39750
15.951	0.39920
15.902	0.40280
15.854	0.40700
15.805	0.40990
15.757	0.41040
15.710	0.40800
15.662	0.40210
15.615	0.39450
15.568	0.38750
15.521	0.38280
15.475	0.38160
15.429	0.38350
15.383	0.38650
15.338	0.38790
15.292	0.38530
15.248	0.37740
15.203	0.36550
15.158	0.35200
15.114	0.33980
15.070	0.33110
15.027	0.32570
14.983	0.32250
14.940	0.32010
14.897	0.31640
14.854	0.31130
14.812	0.30440
14.770	0.29790
14.728	0.29170
14.686	0.28660
14.645	0.28220
14.603	0.27810
14.562	0.27340
14.521	0.26860
14.481	0.26370
14.441	0.25980
14.400	0.25810
14.361	0.25830
14.321	0.26030
14.281	0.26340
14.242	0.26610
14.203	0.26810
14.164	0.26880
14.126	0.26860
14.087	0.26830
14.049	0.26880
14.011	0.27080
13.973	0.27390
13.936	0.27730
13.899	0.28100
13.861	0.28470
13.824	0.28780
13.788	0.29080
13.751	0.29350
13.715	0.29610
13.679	0.29860
13.643	0.30100
13.607	0.30420
13.571	0.30910
13.536	0.31620
13.500	0.32500
13.465	0.33470
13.430	0.34350
13.396	0.35060
13.361	0.35550
13.327	0.35910
13.293	0.36250
13.259	0.36620
13.225	0.36960
13.191	0.37230
13.158	0.37330
13.124	0.37350
13.091	0.37480
13.058	0.37870
13.026	0.38670
12.993	0.39770
12.960	0.41060
12.928	0.42290
12.896	0.43240
12.864	0.43990
12.832	0.44560
12.800	0.45090
12.769	0.45630
12.737	0.46240
12.706	0.46900
12.675	0.47580
12.644	0.48290
12.614	0.48950
12.583	0.49510
12.552	0.50070
12.522	0.50590
12.492	0.51200
12.462	0.51980
12.432	0.52950
12.402	0.54100
12.373	0.55300
12.343	0.56470
12.314	0.57540
12.285	0.58470
12.256	0.59280
12.227	0.59990
12.198	0.60690
12.169	0.61350
12.141	0.61990
12.113	0.62550
12.084	0.63010
12.056	0.63400
12.028	0.63720
12.000	0.64040
11.973	0.64400
11.945	0.64840
11.918	0.65380
11.890	0.65970
11.863	0.66550
11.836	0.67110
11.809	0.67680
11.782	0.68240
11.755	0.68820
11.729	0.69430
11.702	0.69990
11.676	0.70480
11.650	0.70780
11.624	0.70900
11.598	0.70780
11.572	0.70510
11.546	0.70090
11.520	0.69630
11.495	0.69090
11.469	0.68550
11.444	0.68120
11.419	0.67800
11.394	0.67680
11.369	0.67800
11.344	0.68140
11.319	0.68630
11.294	0.69090
11.270	0.69360
11.245	0.69380
11.221	0.69120
11.197	0.68550
11.173	0.67800
11.149	0.66920
11.125	0.65970
11.101	0.64940
11.077	0.63890
11.054	0.62940
11.030	0.62110
11.007	0.61430
10.983	0.60860
10.960	0.60350
10.937	0.59790
10.914	0.59130
10.891	0.58350
10.868	0.57520
10.846	0.56710
10.823	0.56010
10.800	0.55440
10.778	0.55030
10.755	0.54710
10.733	0.54420
10.711	0.54150
10.689	0.53910
10.667	0.53660
10.645	0.53470
10.623	0.53340
10.602	0.53270
10.580	0.53220
10.558	0.53150
10.537	0.53050
10.516	0.52880
10.494	0.52710
10.473	0.52510
10.452	0.52320
10.431	0.52120
10.410	0.51930
10.389	0.51730
10.368	0.51590
10.348	0.51490
10.327	0.51510
10.306	0.51640
10.286	0.51780
10.266	0.51880
10.245	0.51930
10.225	0.51860
10.205	0.51710
10.185	0.51510
10.165	0.51370
10.145	0.51270
10.125	0.51240
10.106	0.51270
10.086	0.51290
10.066	0.51240
10.047	0.51150
10.027	0.51030
10.008	0.50900
9.9887	0.50880
9.9695	0.50930
9.9504	0.51100
9.9313	0.51290
9.9123	0.51490
9.8934	0.51640
9.8746	0.51710
9.8558	0.51660
9.8371	0.51510
9.8185	0.51270
9.7999	0.50980
9.7814	0.50630
9.7630	0.50340
9.7447	0.50070
9.7264	0.49830
9.7082	0.49510
9.6900	0.49070
9.6719	0.48460
9.6539	0.47700
9.6360	0.46830
9.6181	0.45920
9.6003	0.45020
9.5825	0.44120
9.5649	0.43190
9.5472	0.42210
9.5297	0.41210
9.5122	0.40210
9.4948	0.39210
9.4774	0.38210
9.4601	0.37210
9.4429	0.36230
9.4257	0.35250
9.4086	0.34300
9.3916	0.33370
9.3746	0.32500
9.3577	0.31660
9.3408	0.30880
9.3240	0.30200
9.3073	0.29570
9.2906	0.29000
9.2740	0.28520
9.2574	0.28100
9.2409	0.27730
9.2245	0.27390
9.2081	0.27050
9.1918	0.26680
9.1755	0.26290
9.1593	0.25930
9.1431	0.25630
9.1270	0.25440
9.1110	0.25370
9.0950	0.25410
9.0791	0.25510
9.0632	0.25610
9.0474	0.25710
9.0316	0.25830
9.0159	0.26030
9.0003	0.26250
8.9847	0.26510
8.9691	0.26760
8.9536	0.26980
8.9382	0.27150
8.9228	0.27320
8.9075	0.27490
8.8922	0.27730
8.8770	0.27980
8.8618	0.28220
8.8467	0.28470
8.8316	0.28660
8.8166	0.28810
8.8016	0.28980
8.7867	0.29220
8.7718	0.29590
8.7570	0.30080
8.7422	0.30640
8.7275	0.31250
8.7129	0.31860
8.6982	0.32400
8.6837	0.32890
8.6692	0.33330
8.6547	0.33740
8.6403	0.34230
8.6259	0.34720
8.6116	0.35230
8.5973	0.35740
8.5830	0.36250
8.5688	0.36740
8.5547	0.37230
8.5406	0.37700
8.5266	0.38180
8.5126	0.38620
8.4986	0.39110
8.4847	0.39620
8.4708	0.40190
8.4570	0.40820
8.4432	0.41500
8.4295	0.42260
8.4158	0.43040
8.4022	0.43820
8.3886	0.44560
8.3750	0.45240
8.3615	0.45920
8.3481	0.46610
8.3347	0.47390
8.3213	0.48340
8.3079	0.49460
8.2946	0.50760
8.2814	0.52200
8.2682	0.53710
8.2550	0.55220
8.2419	0.56790
8.2288	0.58370
8.2158	0.59990
8.2028	0.61670
8.1898	0.63400
8.1769	0.65210
8.1640	0.67040
8.1512	0.68900
8.1384	0.70730
8.1256	0.72560
8.1129	0.74340
8.1002	0.76070
8.0876	0.77830
8.0750	0.79590
8.0624	0.81350
8.0499	0.83060
8.0374	0.84670
8.0250	0.86160
8.0126	0.87500
8.0002	0.88740
7.9879	0.89970
7.9756	0.91210
7.9634	0.92480
7.9512	0.93800
7.9390	0.95120
7.9268	0.96410
7.9147	0.97630
7.9027	0.98800
7.8906	0.99850
7.8786	1.0081
7.8667	1.0166
7.8548	1.0242
7.8429	1.0315
7.8310	1.0386
7.8192	1.0459
7.8075	1.0532
7.7957	1.0601
7.7840	1.0664
7.7723	1.0720
7.7607	1.0767
7.7491	1.0806
7.7375	1.0840
7.7260	1.0879
7.7145	1.0920
7.7031	1.0964
7.6916	1.1011
7.6802	1.1057
7.6689	1.1099
7.6575	1.1135
7.6462	1.1165
7.6350	1.1191
7.6238	1.1211
7.6126	1.1233
7.6014	1.1252
7.5903	1.1274
7.5792	1.1294
7.5681	1.1313
7.5571	1.1328
7.5461	1.1343
7.5351	1.1360
7.5242	1.1377
7.5133	1.1404
7.5024	1.1433
7.4916	1.1460
7.4807	1.1482
7.4700	1.1492
7.4592	1.1494
7.4485	1.1489
7.4378	1.1482
7.4272	1.1477
7.4165	1.1470
7.4059	1.1460
7.3954	1.1445
7.3848	1.1431
7.3743	1.1414
7.3639	1.1399
7.3534	1.1389
7.3430	1.1374
7.3326	1.1357
7.3223	1.1331
7.3119	1.1294
7.3016	1.1252
7.2914	1.1208
7.2811	1.1167
7.2709	1.1128
7.2607	1.1096
7.2506	1.1072
7.2404	1.1057
7.2303	1.1052
7.2203	1.1057
7.2102	1.1069
7.2002	1.1084
7.1902	1.1094
7.1803	1.1101
7.1703	1.1101
7.1604	1.1101
7.1506	1.1101
7.1407	1.1106
7.1309	1.1116
7.1211	1.1130
7.1113	1.1150
7.1016	1.1174
7.0919	1.1199
7.0822	1.1228
7.0725	1.1260
7.0629	1.1291
7.0533	1.1323
7.0437	1.1353
7.0341	1.1372
7.0246	1.1382
7.0151	1.1382
7.0056	1.1379
6.9962	1.1379
6.9867	1.1387
6.9773	1.1396
6.9679	1.1409
6.9586	1.1418
6.9493	1.1426
6.9400	1.1426
6.9307	1.1421
6.9214	1.1421
6.9122	1.1426
6.9030	1.1433
6.8938	1.1445
6.8847	1.1460
6.8755	1.1472
6.8664	1.1484
6.8573	1.1494
6.8483	1.1509
6.8393	1.1528
6.8302	1.1560
6.8213	1.1602
6.8123	1.1655
6.8034	1.1714
6.7944	1.1772
6.7855	1.1831
6.7767	1.1890
6.7678	1.1943
6.7590	1.1997
6.7502	1.2048
6.7414	1.2092
6.7327	1.2129
6.7239	1.2163
6.7152	1.2197
6.7065	1.2234
6.6979	1.2273
6.6892	1.2317
6.6806	1.2361
6.6720	1.2402
6.6634	1.2441
6.6549	1.2478
6.6464	1.2515
6.6378	1.2551
6.6294	1.2585
6.6209	1.2617
6.6124	1.2649
6.6040	1.2678
6.5956	1.2707
6.5872	1.2732
6.5789	1.2754
6.5705	1.2773
6.5622	1.2790
6.5539	1.2812
6.5456	1.2837
6.5374	1.2864
6.5292	1.2893
6.5209	1.2920
6.5128	1.2944
6.5046	1.2966
6.4964	1.2986
6.4883	1.3003
6.4802	1.3015
6.4721	1.3020
6.4640	1.3022
6.4560	1.3022
6.4480	1.3020
6.4399	1.3018
6.4320	1.3018
6.4240	1.3015
6.4160	1.3008
6.4081	1.2998
6.4002	1.2986
6.3923	1.2966
6.3844	1.2947
6.3766	1.2925
6.3687	1.2900
6.3609	1.2874
6.3531	1.2842
6.3454	1.2808
6.3376	1.2769
6.3299	1.2727
6.3221	1.2678
6.3144	1.2627
6.3068	1.2573
6.2991	1.2519
6.2914	1.2468
6.2838	1.2419
6.2762	1.2378
6.2686	1.2336
6.2611	1.2297
6.2535	1.2258
6.2460	1.2214
6.2385	1.2168
6.2310	1.2119
6.2235	1.2063
6.2160	1.1999
6.2086	1.1929
6.2011	1.1846
6.1937	1.1750
6.1863	1.1650
6.1790	1.1548
6.1716	1.1457
6.1643	1.1382
6.1570	1.1328
6.1496	1.1294
6.1424	1.1279
6.1351	1.1277
6.1278	1.1279
6.1206	1.1282
6.1134	1.1284
6.1062	1.1287
6.0990	1.1294
6.0918	1.1306
6.0847	1.1328
6.0776	1.1360
6.0704	1.1396
6.0633	1.1438
6.0563	1.1482
6.0492	1.1526
6.0421	1.1575
6.0351	1.1626
6.0281	1.1685
6.0211	1.1750
6.0141	1.1826
6.0071	1.1904
6.0002	1.1982
5.9932	1.2061
5.9863	1.2131
5.9794	1.2197
5.9725	1.2261
5.9657	1.2327
5.9588	1.2393
5.9520	1.2468
5.9451	1.2554
5.9383	1.2644
5.9315	1.2739
5.9247	1.2837
5.9180	1.2939
5.9112	1.3047
5.9045	1.3154
5.8978	1.3262
5.8911	1.3364
5.8844	1.3464
5.8777	1.3555
5.8711	1.3640
5.8644	1.3721
5.8578	1.3799
5.8512	1.3877
5.8446	1.3957
5.8380	1.4033
5.8314	1.4104
5.8249	1.4170
5.8184	1.4226
5.8118	1.4272
5.8053	1.4316
5.7988	1.4363
5.7923	1.4412
5.7859	1.4465
5.7794	1.4524
5.7730	1.4582
5.7666	1.4634
5.7602	1.4680
5.7538	1.4719
5.7474	1.4753
5.7410	1.4785
5.7347	1.4819
5.7283	1.4853
5.7220	1.4890
5.7157	1.4927
5.7094	1.4961
5.7031	1.4998
5.6969	1.5032
5.6906	1.5066
5.6844	1.5103
5.6782	1.5139
5.6719	1.5173
5.6657	1.5207
5.6596	1.5239
5.6534	1.5271
5.6472	1.5303
5.6411	1.5334
5.6349	1.5366
5.6288	1.5393
5.6227	1.5415
5.6166	1.5435
5.6106	1.5447
5.6045	1.5457
5.5984	1.5464
5.5924	1.5466
5.5864	1.5469
5.5804	1.5466
5.5744	1.5469
5.5684	1.5474
5.5624	1.5483
5.5564	1.5500
5.5505	1.5520
5.5445	1.5544
5.5386	1.5569
5.5327	1.5593
5.5268	1.5618
5.5209	1.5642
5.5151	1.5664
5.5092	1.5691
5.5033	1.5720
5.4975	1.5752
5.4917	1.5791
5.4859	1.5840
5.4801	1.5896
5.4743	1.5955
5.4685	1.6018
5.4628	1.6079
5.4570	1.6138
5.4513	1.6189
5.4455	1.6235
5.4398	1.6279
5.4341	1.6318
5.4284	1.6357
5.4228	1.6392
5.4171	1.6423
5.4114	1.6453
5.4058	1.6479
5.4002	1.6506
5.3945	1.6531
5.3889	1.6558
5.3833	1.6584
5.3778	1.6609
5.3722	1.6636
5.3666	1.6660
5.3611	1.6685
5.3555	1.6707
5.3500	1.6731
5.3445	1.6755
5.3390	1.6780
5.3335	1.6802
5.3280	1.6826
5.3225	1.6846
5.3171	1.6865
5.3116	1.6887
5.3062	1.6909
5.3008	1.6936
5.2954	1.6965
5.2900	1.6995
5.2846	1.7024
5.2792	1.7048
5.2738	1.7065
5.2684	1.7080
5.2631	1.7092
5.2578	1.7107
5.2524	1.7124
5.2471	1.7144
5.2418	1.7165
5.2365	1.7185
5.2312	1.7205
5.2260	1.7222
5.2207	1.7236
5.2154	1.7248
5.2102	1.7258
5.2050	1.7270
5.1998	1.7285
5.1945	1.7302
5.1893	1.7319
5.1842	1.7339
5.1790	1.7356
5.1738	1.7368
5.1686	1.7375
5.1635	1.7380
5.1584	1.7385
5.1532	1.7393
5.1481	1.7402
5.1430	1.7415
5.1379	1.7429
5.1328	1.7441
5.1277	1.7451
5.1227	1.7461
5.1176	1.7466
5.1126	1.7471
5.1075	1.7473
5.1025	1.7476
5.0975	1.7483
5.0925	1.7493
5.0875	1.7502
5.0825	1.7515
5.0775	1.7527
5.0726	1.7534
5.0676	1.7534
5.0627	1.7532
5.0577	1.7529
5.0528	1.7527
5.0479	1.7527
5.0430	1.7532
5.0380	1.7539
5.0332	1.7549
5.0283	1.7559
5.0234	1.7566
5.0185	1.7576
5.0137	1.7583
5.0088	1.7595
5.0040	1.7607
4.9992	1.7620
4.9944	1.7627
4.9896	1.7629
4.9848	1.7629
4.9800	1.7627
4.9752	1.7629
4.9704	1.7639
4.9657	1.7651
4.9609	1.7666
4.9562	1.7678
4.9514	1.7690
4.9467	1.7703
4.9420	1.7712
4.9373	1.7722
4.9326	1.7732
4.9279	1.7739
4.9232	1.7742
4.9186	1.7744
4.9139	1.7744
4.9092	1.7744
4.9046	1.7747
4.9000	1.7756
4.8953	1.7766
4.8907	1.7781
4.8861	1.7793
4.8815	1.7805
4.8769	1.7815
4.8723	1.7825
4.8678	1.7837
4.8632	1.7849
4.8586	1.7861
4.8541	1.7871
4.8495	1.7881
4.8450	1.7888
4.8405	1.7895
4.8360	1.7900
4.8315	1.7903
4.8270	1.7903
4.8225	1.7900
4.8180	1.7893
4.8135	1.7886
4.8090	1.7883
4.8046	1.7883
4.8001	1.7888
4.7957	1.7900
4.7913	1.7915
4.7868	1.7932
4.7824	1.7947
4.7780	1.7959
4.7736	1.7969
4.7692	1.7976
4.7648	1.7978
4.7605	1.7983
4.7561	1.7988
4.7517	1.7993
4.7474	1.8003
4.7431	1.8013
4.7387	1.8027
4.7344	1.8040
4.7301	1.8052
4.7258	1.8061
4.7215	1.8061
4.7172	1.8059
4.7129	1.8052
4.7086	1.8049
4.7043	1.8057
4.7000	1.8071
4.6958	1.8091
4.6915	1.8110
4.6873	1.8120
4.6831	1.8123
4.6788	1.8115
4.6746	1.8105
4.6704	1.8098
4.6662	1.8096
4.6620	1.8103
4.6578	1.8118
4.6536	1.8132
4.6495	1.8152
4.6453	1.8169
4.6411	1.8184
4.6370	1.8196
4.6328	1.8203
4.6287	1.8208
4.6246	1.8208
4.6205	1.8206
4.6163	1.8206
4.6122	1.8206
4.6081	1.8208
4.6040	1.8210
4.6000	1.8218
4.5959	1.8225
4.5918	1.8230
4.5877	1.8235
4.5837	1.8242
4.5796	1.8249
4.5756	1.8257
4.5716	1.8262
4.5675	1.8269
4.5635	1.8271
4.5595	1.8271
4.5555	1.8269
4.5515	1.8264
4.5475	1.8259
4.5435	1.8254
4.5395	1.8252
4.5356	1.8252
4.5316	1.8252
4.5276	1.8257
4.5237	1.8259
4.5197	1.8262
4.5158	1.8259
4.5119	1.8254
4.5080	1.8247
4.5040	1.8240
4.5001	1.8235
4.4962	1.8232
4.4923	1.8235
4.4884	1.8237
4.4846	1.8240
4.4807	1.8242
4.4768	1.8242
4.4730	1.8245
4.4691	1.8245
4.4652	1.8247
4.4614	1.8249
4.4576	1.8252
4.4537	1.8249
4.4499	1.8247
4.4461	1.8245
4.4423	1.8240
4.4385	1.8240
4.4347	1.8240
4.4309	1.8245
4.4271	1.8249
4.4233	1.8252
4.4196	1.8254
4.4158	1.8254
4.4120	1.8252
4.4083	1.8247
4.4045	1.8242
4.4008	1.8237
4.3971	1.8235
4.3934	1.8230
4.3896	1.8227
4.3859	1.8227
4.3822	1.8230
4.3785	1.8237
4.3748	1.8245
4.3711	1.8254
4.3674	1.8264
4.3638	1.8269
4.3601	1.8264
4.3564	1.8257
4.3528	1.8245
4.3491	1.8237
4.3455	1.8232
4.3418	1.8232
4.3382	1.8235
4.3346	1.8232
4.3310	1.8223
4.3273	1.8210
4.3237	1.8191
4.3201	1.8176
4.3165	1.8166
4.3129	1.8164
4.3094	1.8169
4.3058	1.8171
4.3022	1.8174
4.2986	1.8171
4.2951	1.8166
4.2915	1.8164
4.2880	1.8164
4.2844	1.8166
4.2809	1.8169
4.2774	1.8169
4.2738	1.8164
4.2703	1.8154
4.2668	1.8144
4.2633	1.8137
4.2598	1.8135
4.2563	1.8135
4.2528	1.8140
4.2493	1.8144
4.2458	1.8149
4.2424	1.8152
4.2389	1.8157
4.2354	1.8162
4.2320	1.8166
4.2285	1.8169
4.2251	1.8166
4.2216	1.8154
4.2182	1.8140
4.2148	1.8123
4.2113	1.8110
4.2079	1.8105
4.2045	1.8108
4.2011	1.8118
4.1977	1.8127
4.1943	1.8135
4.1909	1.8137
4.1875	1.8132
4.1841	1.8123
4.1808	1.8113
4.1774	1.8108
4.1740	1.8108
4.1707	1.8113
4.1673	1.8118
4.1640	1.8120
4.1606	1.8118
4.1573	1.8110
4.1540	1.8101
4.1506	1.8088
4.1473	1.8076
4.1440	1.8066
4.1407	1.8061
4.1374	1.8057
4.1341	1.8057
4.1308	1.8059
4.1275	1.8061
4.1242	1.8061
4.1209	1.8057
4.1177	1.8052
4.1144	1.8044
4.1111	1.8037
4.1079	1.8032
4.1046	1.8027
4.1014	1.8022
4.0981	1.8015
4.0949	1.8003
4.0917	1.7991
4.0884	1.7983
4.0852	1.7978
4.0820	1.7976
4.0788	1.7978
4.0756	1.7981
4.0724	1.7981
4.0692	1.7976
4.0660	1.7969
4.0628	1.7959
4.0596	1.7947
4.0565	1.7932
4.0533	1.7917
4.0501	1.7905
4.0470	1.7891
4.0438	1.7878
4.0406	1.7864
4.0375	1.7849
4.0344	1.7832
4.0312	1.7812
4.0281	1.7788
4.0250	1.7764
4.0218	1.7739
4.0187	1.7715
4.0156	1.7688
4.0125	1.7664
4.0094	1.7639
4.0063	1.7612
4.0032	1.7583
4.0001	1.7546
3.9970	1.7502
3.9940	1.7451
3.9909	1.7395
3.9878	1.7344
3.9847	1.7295
3.9817	1.7258
3.9786	1.7229
3.9756	1.7207
3.9725	1.7192
3.9695	1.7183
3.9665	1.7178
3.9634	1.7175
3.9604	1.7173
3.9574	1.7168
3.9544	1.7161
3.9513	1.7151
3.9483	1.7136
3.9453	1.7126
3.9423	1.7122
3.9393	1.7124
3.9363	1.7126
3.9333	1.7134
3.9304	1.7139
3.9274	1.7141
3.9244	1.7141
3.9214	1.7141
3.9185	1.7141
3.9155	1.7139
3.9126	1.7139
3.9096	1.7136
3.9067	1.7136
3.9037	1.7134
3.9008	1.7134
3.8979	1.7131
3.8949	1.7131
3.8920	1.7131
3.8891	1.7131
3.8862	1.7129
3.8833	1.7124
3.8804	1.7117
3.8775	1.7107
3.8746	1.7097
3.8717	1.7087
3.8688	1.7078
3.8659	1.7068
3.8630	1.7058
3.8601	1.7046
3.8573	1.7034
3.8544	1.7019
3.8515	1.7004
3.8487	1.6990
3.8458	1.6975
3.8430	1.6960
3.8401	1.6946
3.8373	1.6926
3.8344	1.6904
3.8316	1.6882
3.8288	1.6858
3.8259	1.6836
3.8231	1.6814
3.8203	1.6794
3.8175	1.6775
3.8147	1.6755
3.8119	1.6736
3.8091	1.6721
3.8063	1.6707
3.8035	1.6697
3.8007	1.6689
3.7979	1.6682
3.7951	1.6672
3.7924	1.6660
3.7896	1.6648
3.7868	1.6638
3.7841	1.6633
3.7813	1.6631
3.7785	1.6628
3.7758	1.6628
3.7730	1.6623
3.7703	1.6619
3.7676	1.6606
3.7648	1.6594
3.7621	1.6580
3.7594	1.6565
3.7566	1.6550
3.7539	1.6533
3.7512	1.6521
3.7485	1.6509
3.7458	1.6501
3.7431	1.6497
3.7404	1.6492
3.7377	1.6484
3.7350	1.6472
3.7323	1.6460
3.7296	1.6440
3.7269	1.6416
3.7242	1.6387
3.7216	1.6355
3.7189	1.6321
3.7162	1.6289
3.7136	1.6262
3.7109	1.6243
3.7083	1.6233
3.7056	1.6228
3.7030	1.6228
3.7003	1.6223
3.6977	1.6216
3.6950	1.6201
3.6924	1.6182
3.6898	1.6155
3.6872	1.6128
3.6845	1.6101
3.6819	1.6082
3.6793	1.6064
3.6767	1.6052
3.6741	1.6038
3.6715	1.6020
3.6689	1.5998
3.6663	1.5974
3.6637	1.5947
3.6611	1.5923
3.6585	1.5903
3.6560	1.5881
3.6534	1.5864
3.6508	1.5852
3.6482	1.5842
3.6457	1.5835
3.6431	1.5830
3.6406	1.5825
3.6380	1.5813
3.6355	1.5793
3.6329	1.5771
3.6304	1.5747
3.6278	1.5723
3.6253	1.5703
3.6227	1.5686
3.6202	1.5669
3.6177	1.5652
3.6152	1.5632
3.6127	1.5608
3.6101	1.5581
3.6076	1.5554
3.6051	1.5525
3.6026	1.5498
3.6001	1.5471
3.5976	1.5444
3.5951	1.5420
3.5926	1.5395
3.5901	1.5376
3.5876	1.5356
3.5852	1.5339
3.5827	1.5325
3.5802	1.5308
3.5777	1.5288
3.5753	1.5269
3.5728	1.5244
3.5704	1.5220
3.5679	1.5195
3.5654	1.5173
3.5630	1.5151
3.5605	1.5129
3.5581	1.5105
3.5557	1.5078
3.5532	1.5046
3.5508	1.5010
3.5484	1.4971
3.5459	1.4934
3.5435	1.4902
3.5411	1.4873
3.5387	1.4851
3.5363	1.4832
3.5338	1.4810
3.5314	1.4783
3.5290	1.4751
3.5266	1.4709
3.5242	1.4658
3.5218	1.4604
3.5195	1.4551
3.5171	1.4499
3.5147	1.4453
3.5123	1.4412
3.5099	1.4373
3.5075	1.4331
3.5052	1.4287
3.5028	1.4241
3.5004	1.4197
3.4981	1.4150
3.4957	1.4109
3.4934	1.4070
3.4910	1.4033
3.4887	1.4001
3.4863	1.3972
3.4840	1.3940
3.4816	1.3909
3.4793	1.3874
3.4770	1.3840
3.4746	1.3809
3.4723	1.3787
3.4700	1.3769
3.4677	1.3757
3.4653	1.3745
3.4630	1.3730
3.4607	1.3711
3.4584	1.3684
3.4561	1.3655
3.4538	1.3623
3.4515	1.3591
3.4492	1.3562
3.4469	1.3533
3.4446	1.3503
3.4423	1.3474
3.4400	1.3445
3.4378	1.3413
3.4355	1.3384
3.4332	1.3350
3.4309	1.3313
3.4287	1.3271
3.4264	1.3225
3.4241	1.3176
3.4219	1.3132
3.4196	1.3093
3.4174	1.3064
3.4151	1.3042
3.4129	1.3025
3.4106	1.3010
3.4084	1.2996
3.4061	1.2978
3.4039	1.2961
3.4017	1.2947
3.3994	1.2937
3.3972	1.2930
3.3950	1.2922
3.3928	1.2913
3.3906	1.2895
3.3883	1.2871
3.3861	1.2847
3.3839	1.2820
3.3817	1.2795
3.3795	1.2778
3.3773	1.2766
3.3751	1.2759
3.3729	1.2751
3.3707	1.2744
3.3685	1.2737
3.3663	1.2732
3.3641	1.2732
3.3620	1.2734
3.3598	1.2739
3.3576	1.2737
3.3554	1.2725
3.3533	1.2710
3.3511	1.2693
3.3489	1.2678
3.3468	1.2664
3.3446	1.2656
3.3425	1.2646
3.3403	1.2634
3.3382	1.2620
3.3360	1.2603
3.3339	1.2585
3.3317	1.2563
3.3296	1.2539
3.3274	1.2515
3.3253	1.2485
3.3232	1.2454
3.3210	1.2427
3.3189	1.2400
3.3168	1.2375
3.3147	1.2356
3.3126	1.2336
3.3104	1.2317
3.3083	1.2297
3.3062	1.2278
3.3041	1.2263
3.3020	1.2249
3.2999	1.2234
3.2978	1.2222
3.2957	1.2207
3.2936	1.2190
3.2915	1.2165
3.2894	1.2139
3.2874	1.2107
3.2853	1.2073
3.2832	1.2034
3.2811	1.1995
3.2790	1.1953
3.2770	1.1916
3.2749	1.1887
3.2728	1.1865
3.2708	1.1848
3.2687	1.1836
3.2666	1.1819
3.2646	1.1797
3.2625	1.1768
3.2605	1.1736
3.2584	1.1699
3.2564	1.1663
3.2543	1.1628
3.2523	1.1594
3.2503	1.1562
3.2482	1.1533
3.2462	1.1504
3.2442	1.1477
3.2421	1.1448
3.2401	1.1418
3.2381	1.1392
3.2361	1.1365
3.2340	1.1340
3.2320	1.1316
3.2300	1.1291
3.2280	1.1260
3.2260	1.1226
3.2240	1.1186
3.2220	1.1143
3.2200	1.1099
3.2180	1.1057
3.2160	1.1018
3.2140	1.0981
3.2120	1.0950
3.2100	1.0923
3.2080	1.0903
3.2060	1.0889
3.2040	1.0872
3.2021	1.0852
3.2001	1.0828
3.1981	1.0793
3.1961	1.0759
3.1942	1.0725
3.1922	1.0691
3.1902	1.0659
3.1883	1.0625
3.1863	1.0586
3.1844	1.0542
3.1824	1.0496
3.1805	1.0449
3.1785	1.0408
3.1766	1.0371
3.1746	1.0339
3.1727	1.0308
3.1707	1.0281
3.1688	1.0251
3.1669	1.0220
3.1649	1.0188
3.1630	1.0154
3.1611	1.0122
3.1591	1.0090
3.1572	1.0056
3.1553	1.0024
3.1534	0.99880
3.1515	0.99460
3.1495	0.99020
3.1476	0.98560
3.1457	0.98120
3.1438	0.97680
3.1419	0.97290
3.1400	0.96950
3.1381	0.96680
3.1362	0.96410
3.1343	0.96120
3.1324	0.95820
3.1305	0.95480
3.1286	0.95120
3.1268	0.94780
3.1249	0.94480
3.1230	0.94190
3.1211	0.93920
3.1192	0.93650
3.1174	0.93380
3.1155	0.93090
3.1136	0.92770
3.1117	0.92430
3.1099	0.92140
3.1080	0.91820
3.1061	0.91530
3.1043	0.91240
3.1024	0.90920
3.1006	0.90600
3.0987	0.90280
3.0969	0.89970
3.0950	0.89650
3.0932	0.89360
3.0913	0.89010
3.0895	0.88650
3.0876	0.88310
3.0858	0.88040
3.0840	0.87840
3.0821	0.87720
3.0803	0.87600
3.0785	0.87430
3.0766	0.87160
3.0748	0.86770
3.0730	0.86300
3.0712	0.85840
3.0694	0.85450
3.0675	0.85160
3.0657	0.84940
3.0639	0.84770
3.0621	0.84590
3.0603	0.84420
3.0585	0.84250
3.0567	0.84080
3.0549	0.83860
3.0531	0.83620
3.0513	0.83320
3.0495	0.82930
3.0477	0.82520
3.0459	0.82080
3.0441	0.81660
3.0423	0.81300
3.0406	0.81010
3.0388	0.80810
3.0370	0.80660
3.0352	0.80540
3.0334	0.80400
3.0317	0.80250
3.0299	0.80050
3.0281	0.79780
3.0264	0.79440
3.0246	0.79100
3.0228	0.78780
3.0211	0.78520
3.0193	0.78340
3.0176	0.78250
3.0158	0.78170
3.0140	0.78030
3.0123	0.77780
3.0105	0.77420
3.0088	0.76980
3.0070	0.76540
3.0053	0.76200
3.0036	0.75980
3.0018	0.75850
3.0001	0.75780
2.9984	0.75680
2.9966	0.75510
2.9949	0.75270
2.9932	0.74980
2.9914	0.74660
2.9897	0.74410
2.9880	0.74220
2.9863	0.74020
2.9845	0.73800
2.9828	0.73530
2.9811	0.73270
2.9794	0.72950
2.9777	0.72700
2.9760	0.72510
2.9743	0.72360
2.9726	0.72220
2.9709	0.72050
2.9692	0.71850
2.9675	0.71660
2.9658	0.71440
2.9641	0.71260
2.9624	0.71140
2.9607	0.71000
2.9590	0.70800
2.9573	0.70560
2.9556	0.70260
2.9539	0.69990
2.9523	0.69780
2.9506	0.69630
2.9489	0.69560
2.9472	0.69460
2.9455	0.69310
2.9439	0.69090
2.9422	0.68820
2.9405	0.68510
2.9389	0.68240
2.9372	0.67990
2.9355	0.67820
2.9339	0.67700
2.9322	0.67600
2.9306	0.67500
2.9289	0.67410
2.9272	0.67310
2.9256	0.67160
2.9239	0.67040
2.9223	0.66890
2.9207	0.66800
2.9190	0.66720
2.9174	0.66700
2.9157	0.66700
2.9141	0.66750
2.9124	0.66770
2.9108	0.66770
2.9092	0.66700
2.9075	0.66550
2.9059	0.66280
2.9043	0.65940
2.9027	0.65580
2.9010	0.65190
2.8994	0.64890
2.8978	0.64700
2.8962	0.64600
2.8946	0.64550
2.8929	0.64530
2.8913	0.64530
2.8897	0.64500
2.8881	0.64480
2.8865	0.64500
2.8849	0.64530
2.8833	0.64530
2.8817	0.64480
2.8801	0.64330
2.8785	0.64060
2.8769	0.63700
2.8753	0.63310
2.8737	0.62910
2.8721	0.62600
2.8705	0.62330
2.8689	0.62080
2.8673	0.61890
2.8658	0.61720
2.8642	0.61570
2.8626	0.61450
2.8610	0.61350
2.8594	0.61250
2.8579	0.61160
2.8563	0.60990
2.8547	0.60770
2.8531	0.60470
2.8516	0.60130
2.8500	0.59810
2.8484	0.59520
2.8469	0.59250
2.8453	0.59030
2.8437	0.58840
2.8422	0.58640
2.8406	0.58400
2.8391	0.58110
2.8375	0.57790
2.8360	0.57450
2.8344	0.57150
2.8329	0.56910
2.8313	0.56710
2.8298	0.56540
2.8282	0.56270
2.8267	0.55910
2.8252	0.55470
2.8236	0.54980
2.8221	0.54540
2.8205	0.54200
2.8190	0.53950
2.8175	0.53780
2.8159	0.53640
2.8144	0.53470
2.8129	0.53250
2.8114	0.52950
2.8098	0.52640
2.8083	0.52320
2.8068	0.52030
2.8053	0.51730
2.8038	0.51440
2.8022	0.51100
2.8007	0.50760
2.7992	0.50410
2.7977	0.50150
2.7962	0.49950
2.7947	0.49880
2.7932	0.49880
2.7917	0.49880
2.7902	0.49800
2.7887	0.49660
2.7872	0.49440
2.7857	0.49150
2.7842	0.48850
2.7827	0.48540
2.7812	0.48270
2.7797	0.47970
2.7782	0.47680
2.7767	0.47410
2.7752	0.47140
2.7738	0.46900
2.7723	0.46730
2.7708	0.46610
2.7693	0.46560
2.7678	0.46560
2.7664	0.46580
2.7649	0.46630
2.7634	0.46700
2.7619	0.46700
2.7605	0.46660
2.7590	0.46510
2.7575	0.46310
2.7561	0.46070
2.7546	0.45900
2.7531	0.45830
2.7517	0.45870
2.7502	0.45970
2.7488	0.46120
2.7473	0.46220
2.7458	0.46240
2.7444	0.46220
2.7429	0.46170
2.7415	0.46120
2.7400	0.46090
2.7386	0.46120
2.7371	0.46170
2.7357	0.46220
2.7343	0.46260
2.7328	0.46260
2.7314	0.46220
2.7299	0.46170
2.7285	0.46170
2.7271	0.46290
2.7256	0.46530
2.7242	0.46900
2.7228	0.47360
2.7213	0.47830
2.7199	0.48340
2.7185	0.48970
2.7171	0.49900
2.7156	0.51200
2.7142	0.53000
2.7128	0.55350
2.7114	0.58150
2.7100	0.61400
2.7085	0.64940
2.7071	0.68770
2.7057	0.72900
2.7043	0.77390
2.7029	0.82320
2.7015	0.87770
2.7001	0.93630
2.6987	0.99730
2.6973	1.0574
2.6959	1.1133
2.6945	1.1621
2.6931	1.2029
2.6917	1.2361
2.6903	1.2629
2.6889	1.2849
2.6875	1.3032
2.6861	1.3184
2.6847	1.3308
2.6833	1.3408
2.6819	1.3491
2.6805	1.3562
2.6791	1.3623
2.6778	1.3682
2.6764	1.3733
2.6750	1.3779
2.6736	1.3821
2.6722	1.3857
2.6709	1.3896
2.6695	1.3933
2.6681	1.3962
2.6667	1.3984
2.6654	1.3987
2.6640	1.3975
2.6626	1.3948
2.6613	1.3918
2.6599	1.3896
2.6585	1.3896
2.6572	1.3911
2.6558	1.3943
2.6545	1.3979
2.6531	1.4011
2.6517	1.4036
2.6504	1.4053
2.6490	1.4065
2.6477	1.4077
2.6463	1.4084
2.6450	1.4087
2.6436	1.4080
2.6423	1.4067
2.6409	1.4055
2.6396	1.4050
2.6382	1.4060
2.6369	1.4082
2.6356	1.4109
2.6342	1.4133
2.6329	1.4148
2.6315	1.4150
2.6302	1.4141
2.6289	1.4126
2.6275	1.4114
2.6262	1.4106
2.6249	1.4106
2.6236	1.4104
2.6222	1.4104
2.6209	1.4099
2.6196	1.4089
2.6183	1.4077
2.6169	1.4065
2.6156	1.4058
2.6143	1.4053
2.6130	1.4050
2.6117	1.4050
2.6103	1.4055
2.6090	1.4055
2.6077	1.4050
2.6064	1.4040
2.6051	1.4026
2.6038	1.4006
2.6025	1.3989
2.6012	1.3977
2.5999	1.3977
2.5986	1.3982
2.5973	1.3992
2.5960	1.4004
2.5947	1.4011
2.5934	1.4014
2.5921	1.4014
2.5908	1.4016
2.5895	1.4021
2.5882	1.4023
2.5869	1.4019
2.5856	1.4001
2.5843	1.3975
2.5830	1.3936
2.5817	1.3901
2.5805	1.3872
2.5792	1.3853
2.5779	1.3845
2.5766	1.3840
2.5753	1.3843
2.5741	1.3848
2.5728	1.3860
2.5715	1.3874
2.5702	1.3887
2.5690	1.3892
2.5677	1.3889
2.5664	1.3882
2.5651	1.3872
2.5639	1.3862
2.5626	1.3857
2.5613	1.3850
2.5601	1.3838
2.5588	1.3823
2.5575	1.3809
2.5563	1.3801
2.5550	1.3806
2.5538	1.3821
2.5525	1.3833
2.5513	1.3835
2.5500	1.3821
2.5487	1.3787
2.5475	1.3745
2.5462	1.3706
2.5450	1.3686
2.5437	1.3689
2.5425	1.3711
2.5413	1.3740
2.5400	1.3765
2.5388	1.3779
2.5375	1.3777
2.5363	1.3765
2.5350	1.3745
2.5338	1.3726
2.5326	1.3704
2.5313	1.3684
2.5301	1.3667
2.5289	1.3655
2.5276	1.3652
2.5264	1.3660
2.5252	1.3667
2.5239	1.3674
2.5227	1.3674
2.5215	1.3660
2.5202	1.3635
2.5190	1.3608
2.5178	1.3584
2.5166	1.3572
2.5154	1.3564
2.5141	1.3562
2.5129	1.3560
2.5117	1.3547
2.5105	1.3528
2.5093	1.3508
2.5081	1.3489
2.5068	1.3474
2.5056	1.3467
2.5044	1.3462
2.5032	1.3455
2.5020	1.3442
2.5008	1.3430
2.4996	1.3420
2.4984	1.3415
2.4972	1.3423
2.4960	1.3433
2.4948	1.3440
2.4936	1.3433
2.4924	1.3408
2.4912	1.3367
2.4900	1.3320
2.4888	1.3279
2.4876	1.3254
2.4864	1.3249
2.4852	1.3264
2.4840	1.3286
2.4828	1.3306
2.4816	1.3318
2.4805	1.3315
2.4793	1.3298
2.4781	1.3276
2.4769	1.3257
2.4757	1.3242
2.4745	1.3240
2.4734	1.3247
2.4722	1.3254
2.4710	1.3254
2.4698	1.3247
2.4686	1.3232
2.4675	1.3218
2.4663	1.3210
2.4651	1.3218
2.4640	1.3232
2.4628	1.3242
2.4616	1.3235
2.4604	1.3208
2.4593	1.3164
2.4581	1.3118
2.4569	1.3081
2.4558	1.3066
2.4546	1.3081
2.4535	1.3113
2.4523	1.3144
2.4511	1.3162
2.4500	1.3154
2.4488	1.3115
2.4477	1.3059
2.4465	1.3005
2.4454	1.2971
2.4442	1.2966
2.4431	1.2983
2.4419	1.3010
2.4408	1.3035
2.4396	1.3042
2.4385	1.3037
2.4373	1.3027
2.4362	1.3020
2.4350	1.3020
2.4339	1.3025
2.4327	1.3032
2.4316	1.3035
2.4305	1.3032
2.4293	1.3020
2.4282	1.3005
2.4270	1.2993
2.4259	1.2978
2.4248	1.2961
2.4236	1.2939
2.4225	1.2913
2.4214	1.2886
2.4202	1.2861
2.4191	1.2849
2.4180	1.2849
2.4169	1.2856
2.4157	1.2866
2.4146	1.2871
2.4135	1.2874
2.4124	1.2874
2.4112	1.2874
2.4101	1.2878
2.4090	1.2891
2.4079	1.2908
2.4068	1.2930
2.4056	1.2954
2.4045	1.2978
2.4034	1.3000
2.4023	1.3015
2.4012	1.3018
2.4001	1.3008
2.3990	1.2988
2.3979	1.2961
2.3967	1.2930
2.3956	1.2898
2.3945	1.2871
2.3934	1.2847
2.3923	1.2830
2.3912	1.2825
2.3901	1.2827
2.3890	1.2839
2.3879	1.2852
2.3868	1.2856
2.3857	1.2854
2.3846	1.2844
2.3835	1.2832
2.3824	1.2820
2.3813	1.2817
2.3802	1.2827
2.3791	1.2852
2.3781	1.2878
2.3770	1.2898
2.3759	1.2903
2.3748	1.2888
2.3737	1.2856
2.3726	1.2817
2.3715	1.2781
2.3704	1.2759
2.3694	1.2749
2.3683	1.2747
2.3672	1.2749
2.3661	1.2751
2.3650	1.2749
2.3640	1.2747
2.3629	1.2747
2.3618	1.2744
2.3607	1.2737
2.3597	1.2725
2.3586	1.2710
2.3575	1.2693
2.3564	1.2676
2.3554	1.2666
2.3543	1.2656
2.3532	1.2649
2.3522	1.2642
2.3511	1.2634
2.3500	1.2629
2.3490	1.2632
2.3479	1.2639
2.3468	1.2642
2.3458	1.2632
2.3447	1.2610
2.3436	1.2576
2.3426	1.2532
2.3415	1.2495
2.3405	1.2466
2.3394	1.2446
2.3384	1.2432
2.3373	1.2419
2.3363	1.2405
2.3352	1.2385
2.3342	1.2371
2.3331	1.2368
2.3321	1.2378
2.3310	1.2395
2.3300	1.2415
2.3289	1.2439
2.3279	1.2458
2.3268	1.2471
2.3258	1.2478
2.3247	1.2478
2.3237	1.2466
2.3226	1.2441
2.3216	1.2412
2.3206	1.2385
2.3195	1.2371
2.3185	1.2368
2.3175	1.2383
2.3164	1.2410
2.3154	1.2439
2.3144	1.2461
2.3133	1.2478
2.3123	1.2483
2.3113	1.2476
2.3102	1.2463
2.3092	1.2454
2.3082	1.2449
2.3071	1.2449
2.3061	1.2451
2.3051	1.2449
2.3041	1.2436
2.3030	1.2407
2.3020	1.2375
2.3010	1.2351
2.3000	1.2341
2.2990	1.2349
2.2979	1.2368
2.2969	1.2395
2.2959	1.2412
2.2949	1.2422
2.2939	1.2429
2.2929	1.2444
2.2918	1.2463
2.2908	1.2480
2.2898	1.2493
2.2888	1.2493
2.2878	1.2471
2.2868	1.2432
2.2858	1.2393
2.2848	1.2368
2.2838	1.2356
2.2828	1.2356
2.2818	1.2353
2.2808	1.2336
2.2798	1.2302
2.2787	1.2261
2.2777	1.2231
2.2767	1.2227
2.2757	1.2253
2.2747	1.2310
2.2738	1.2368
2.2728	1.2410
2.2718	1.2419
2.2708	1.2397
2.2698	1.2351
2.2688	1.2295
2.2678	1.2249
2.2668	1.2224
2.2658	1.2224
2.2648	1.2249
2.2638	1.2292
2.2628	1.2336
2.2618	1.2366
2.2609	1.2371
2.2599	1.2351
2.2589	1.2322
2.2579	1.2292
2.2569	1.2285
2.2559	1.2297
2.2550	1.2324
2.2540	1.2346
2.2530	1.2356
2.2520	1.2351
2.2510	1.2336
2.2501	1.2322
2.2491	1.2314
2.2481	1.2322
2.2471	1.2341
2.2462	1.2363
2.2452	1.2385
2.2442	1.2397
2.2433	1.2393
2.2423	1.2368
2.2413	1.2322
2.2403	1.2261
2.2394	1.2202
2.2384	1.2161
2.2374	1.2151
2.2365	1.2175
2.2355	1.2222
2.2345	1.2275
2.2336	1.2324
2.2326	1.2349
2.2317	1.2356
2.2307	1.2346
2.2297	1.2332
2.2288	1.2312
2.2278	1.2285
2.2269	1.2266
2.2259	1.2253
2.2250	1.2244
2.2240	1.2234
2.2231	1.2224
2.2221	1.2205
2.2211	1.2180
2.2202	1.2151
2.2192	1.2139
2.2183	1.2146
2.2173	1.2170
2.2164	1.2197
2.2155	1.2214
2.2145	1.2214
2.2136	1.2200
2.2126	1.2180
2.2117	1.2175
2.2107	1.2192
2.2098	1.2222
2.2088	1.2256
2.2079	1.2280
2.2070	1.2280
2.2060	1.2251
2.2051	1.2200
2.2041	1.2136
2.2032	1.2080
2.2023	1.2043
2.2013	1.2041
2.2004	1.2073
2.1995	1.2129
2.1985	1.2192
2.1976	1.2244
2.1967	1.2270
2.1957	1.2268
2.1948	1.2244
2.1939	1.2209
2.1930	1.2175
2.1920	1.2156
2.1911	1.2148
2.1902	1.2146
2.1893	1.2146
2.1883	1.2146
2.1874	1.2136
2.1865	1.2126
2.1856	1.2117
2.1846	1.2114
2.1837	1.2119
2.1828	1.2136
2.1819	1.2173
2.1810	1.2227
2.1800	1.2288
2.1791	1.2344
2.1782	1.2380
2.1773	1.2380
2.1764	1.2344
2.1755	1.2275
2.1746	1.2187
2.1736	1.2095
2.1727	1.2012
2.1718	1.1956
2.1709	1.1926
2.1700	1.1934
2.1691	1.1973
2.1682	1.2034
2.1673	1.2095
2.1664	1.2146
2.1655	1.2175
2.1646	1.2180
2.1637	1.2168
2.1628	1.2153
2.1619	1.2148
2.1610	1.2156
2.1601	1.2161
2.1592	1.2158
2.1583	1.2136
2.1574	1.2090
2.1565	1.2034
2.1556	1.1985
2.1547	1.1965
2.1538	1.1982
2.1529	1.2029
2.1520	1.2090
2.1511	1.2146
2.1502	1.2183
2.1493	1.2197
2.1484	1.2197
2.1475	1.2192
2.1466	1.2190
2.1458	1.2185
2.1449	1.2170
2.1440	1.2141
2.1431	1.2104
2.1422	1.2070
2.1413	1.2048
2.1404	1.2034
2.1396	1.2031
2.1387	1.2036
2.1378	1.2043
2.1369	1.2053
2.1360	1.2068
2.1352	1.2080
2.1343	1.2075
2.1334	1.2051
2.1325	1.2009
2.1316	1.1968
2.1308	1.1934
2.1299	1.1921
2.1290	1.1924
2.1281	1.1938
2.1273	1.1956
2.1264	1.1975
2.1255	1.2002
2.1247	1.2039
2.1238	1.2085
2.1229	1.2126
2.1220	1.2156
2.1212	1.2161
2.1203	1.2139
2.1194	1.2095
2.1186	1.2043
2.1177	1.1999
2.1168	1.1975
2.1160	1.1975
2.1151	1.1999
2.1143	1.2036
2.1134	1.2063
2.1125	1.2068
2.1117	1.2053
2.1108	1.2024
2.1100	1.1999
2.1091	1.1997
2.1082	1.2014
2.1074	1.2043
2.1065	1.2063
2.1057	1.2063
2.1048	1.2043
2.1040	1.2009
2.1031	1.1982
2.1023	1.1985
2.1014	1.2014
2.1005	1.2063
2.0997	1.2109
2.0988	1.2134
2.0980	1.2124
2.0971	1.2085
2.0963	1.2031
2.0955	1.1990
2.0946	1.1975
2.0938	1.2002
2.0929	1.2063
2.0921	1.2139
2.0912	1.2200
2.0904	1.2234
2.0895	1.2227
2.0887	1.2180
2.0879	1.2114
2.0870	1.2041
2.0862	1.1970
2.0853	1.1916
2.0845	1.1853
2.0837	1.1809
2.0828	1.1797
2.0820	1.1719
2.0812	1.1841
2.0803	1.1899
2.0795	1.1855

