Name: Montmorillonite (Na,Ca)0.33(Al,Mg)2Si4O10(OH)2.nH2O
Type:  Mineral
Class:  Silicates
Subclass:  Phyllosilicates (Sheet Silicates); (SmectiteGroup)
Particle Size:  Fine  (Less than 2  Micrometers)
Sample No.: montmor.3
Owner:  JHU
Wavelength Range:  IR
Origin:  Apache Co., Arizona via Roger Clark, USGS #SAZ-1 (CMS), 
purchased from the Clay Mineral Society Repository
Description: The sample is a light brown, earthy clay. Both bulk 
sample and <2 micrometers particle-size separate are pure 
montmorillonite.



Measurement:  Transmission
First Column:  X
Second Column:  Y  
X Units:  Wavelength (micrometers)
Y Units:  Transmittance (percent)
First X Value:  25.0442
Last X Value:  2.079
Number of X Values:  2287
Additional Information:  none

25.04420302	70.9373
24.9237955	69.6326
24.80454022	68.3123
24.68642074	67.2967
24.5694209	66.1131
24.45358465	64.9451
24.3387763	63.9881
24.22504094	62.2889
24.11236361	60.9413
24.00072962	59.7498
23.89012454	58.242
23.78053421	56.5233
23.67194472	55.0741
23.56434244	53.6952
23.45771395	52.7069
23.35204611	51.7225
23.24732598	50.7382
23.14354087	49.9628
23.04067832	49.0018
22.93872607	48.1112
22.83767211	47.08
22.7375046	46.1659
22.63821194	45.6346
22.53978272	45.1347
22.44220571	44.3593
22.3454699	43.8534
22.24956446	43.369
22.15447875	42.6327
22.06020229	41.7831
21.96677306	40.8456
21.87408402	39.789
21.7821739	38.6952
21.69103293	37.8007
21.60065148	37.121
21.5110201	36.8612
21.42212949	37.3827
21.33397051	38.1347
21.24653416	39.2577
21.15981159	40.8593
21.0737941	42.7108
20.98847313	44.6405
20.90384024	46.83
20.81988716	49.0565
20.73660571	51.3514
20.65398787	53.4862
20.57202575	55.492
20.49071156	57.4178
20.41003766	58.8748
20.3299965	59.9139
20.25058069	60.537
20.1717829	60.6209
20.09359597	60.4373
20.01601281	59.7694
19.93906621	58.8436
19.8626695	57.4022
19.78685599	55.6854
19.71161901	54.0018
19.63695203	51.9139
19.56284859	49.8368
19.48930232	48.2421
19.41630698	47.0936
19.34385639	46.2274
19.27194448	46.0516
19.20056526	46.2069
19.12971284	46.6337
19.05938141	47.3094
18.98956523	48.16
18.92025868	49.1913
18.85145618	50.3592
18.78315226	51.4276
18.71534153	52.3573
18.64801865	53.2655
18.58117838	54.1913
18.51481556	55.0829
18.44892507	55.8251
18.38350191	56.5467
18.31854111	57.2274
18.25407111	57.8485
18.19002023	58.5233
18.12641726	59.1805
18.06325753	59.7909
18.00053642	60.3211
17.93824937	61.1092
17.8763919	61.7743
17.81495958	62.4256
17.75394803	63.0477
17.69335296	63.5789
17.63317011	64.0233
17.57339529	64.3592
17.51402436	64.7674
17.45505324	65.1571
17.39647791	65.3905
17.3382944	65.5623
17.28049878	65.8905
17.2230872	66.1698
17.16605584	66.4842
17.10940093	66.7313
17.05311876	67.0438
16.99720566	67.369
16.94165801	67.5311
16.88647225	67.8094
16.83167317	68.1697
16.77720046	68.5633
16.72307919	68.9022
16.66930597	69.3143
16.61587747	69.6522
16.56279037	69.9647
16.51004141	70.2596
16.45762737	70.4373
16.40554507	70.6151
16.35379138	70.6795
16.30236319	70.6248
16.25125744	70.5135
16.20047111	70.4412
16.15000121	70.3514
16.0998448	70.366
16.04999896	70.4666
16.00048641	70.7928
15.95125297	71.4617
15.90232158	72.3084
15.85368947	73.2928
15.80535391	74.4647
15.75731218	75.7195
15.70956162	76.9822
15.6620996	78.1209
15.61492349	79.0545
15.56803074	79.9842
15.52141878	80.7
15.47508511	81.1834
15.42902725	81.5984
15.38324273	81.9451
15.33772913	82.3123
15.29248405	82.6219
15.24750513	82.7576
15.20279002	82.9793
15.1583364	83.282
15.114142	83.575
15.07020455	83.8113
15.02652181	84.0125
14.98309158	84.2166
14.93991168	84.4666
14.89700213	84.7156
14.85431629	84.9597
14.81187438	85.1414
14.76967431	85.2898
14.72771402	85.5125
14.68599147	85.6131
14.64450465	85.7039
14.60325156	85.7859
14.56223023	85.9334
14.52143873	86.0662
14.48087511	86.1834
14.44053748	86.2957
14.40042395	86.408
14.36053266	86.5711
14.32086177	86.8299
14.28140946	87.0203
14.24217393	87.2
14.20315338	87.408
14.16434607	87.6179
14.12575025	87.8328
14.0873642	88.1072
14.0491862	88.3884
14.01121458	88.6091
13.97344765	88.7371
13.93590321	88.9675
13.89854065	89.2996
13.8613779	89.5037
13.82441336	89.6487
13.78764544	89.7307
13.75107258	89.8006
13.71469324	89.9412
13.67850587	90.1331
13.64250897	90.2327
13.60670103	90.4548
13.57108057	90.658
13.53564612	90.8421
13.50039624	90.9295
13.46532947	91.1873
13.4304444	91.26
13.39573962	91.2463
13.36121373	91.363
13.32686536	91.4163
13.29269314	91.4158
13.25869572	91.5061
13.22487175	91.5256
13.19121992	91.4592
13.15773892	91.3826
13.12442745	91.3049
13.09130135	91.2854
13.05832501	91.2171
13.02551438	91.1038
12.99286821	90.9729
12.96038529	90.6897
12.92806437	90.301
12.89590426	90.1599
12.86390376	90.0725
12.83206168	89.8167
12.80037684	89.4334
12.7688481	89.24
12.73747429	89.1443
12.70625427	89.0276
12.67518693	88.8928
12.64427113	88.9207
12.61350579	88.9397
12.58290562	88.8714
12.55243781	88.7464
12.52211719	88.7254
12.4919427	88.6541
12.46191328	88.5589
12.43202789	88.5877
12.40228549	88.6267
12.37268507	88.5745
12.34322561	88.2947
12.31390609	88.094
12.28472554	87.8557
12.25568296	87.3538
12.22677738	86.9031
12.19800782	86.5935
12.16937334	86.0589
12.14087298	85.4002
12.1125058	84.719
12.08427087	84.0174
12.05616727	83.1722
12.02819409	82.5935
12.00035041	81.9939
11.97263534	81.4983
11.945048	81.055
11.9175875	80.8147
11.8902671	80.6892
11.86305761	80.6053
11.83597236	80.6741
11.80901051	80.8167
11.78217122	81.1487
11.75545365	81.4847
11.72885698	81.9265
11.70238038	82.2859
11.67602305	82.615
11.64978419	82.8382
11.62366299	82.949
11.59765866	82.9783
11.57177043	82.9475
11.54599752	82.8089
11.52033916	82.6526
11.49479458	82.4431
11.46936304	82.2322
11.44404378	81.8265
11.41883606	81.4588
11.39373914	81.0354
11.3687523	80.6292
11.34387482	80.2854
11.31910597	79.9319
11.29444505	79.4549
11.26990406	78.9197
11.24545684	78.5389
11.22111545	78.1746
11.19687921	77.6121
11.17274743	77.0296
11.14871946	76.5589
11.12479461	75.8733
11.10097222	75.0472
11.07725165	74.2132
11.05363222	73.4539
11.03011331	72.5276
11.00669427	71.6917
10.98337447	71.139
10.96015327	70.7308
10.93703005	70.5428
10.9140042	70.6937
10.89107509	70.9808
10.86824213	71.3655
10.8455047	71.8914
10.82286221	72.4495
10.80031407	72.8152
10.77785969	73.24
10.75549848	73.5179
10.73322986	73.4559
10.71106474	73.1522
10.68897956	72.7615
10.66698525	72.6448
10.64508128	72.0037
10.62326708	71.1922
10.6015421	70.4979
10.5799058	69.7205
10.55835763	68.7742
10.53689705	67.8289
10.51552354	66.7674
10.49423657	65.6502
10.4730356	64.4847
10.45192012	63.2557
10.43088962	61.9203
10.40994358	60.5199
10.38908149	59.1493
10.36830285	57.661
10.34760717	56.0975
10.32699394	54.5355
10.30646267	52.932
10.28601287	51.3602
10.26564407	49.8187
10.24535578	48.266
10.22514752	46.6942
10.20502924	45.2391
10.1849796	43.8925
10.16500858	42.5575
10.14511574	41.2538
10.12530059	40.0355
10.10556271	38.956
10.08590162	37.8896
10.0663169	36.9364
10.04680808	36.0351
10.02737473	35.2094
10.00801642	34.4159
9.98873271	33.6855
9.969523168	32.998
9.950387369	32.3876
9.931324888	31.8349
9.912335307	31.2939
9.893427994	30.7939
9.874582922	30.3486
9.855809507	29.9555
9.83710734	29.5629
9.818476015	29.2602
9.799915133	28.954
9.781424293	28.686
9.7630031	28.5024
9.744651161	28.4067
9.726368087	28.3603
9.70815349	28.3515
9.690006986	28.4482
9.671928196	28.6113
9.653916739	28.8739
9.635972241	29.2289
9.618094328	29.6347
9.600282632	30.0917
9.582536785	30.6405
9.564856422	31.2348
9.547241181	31.8808
9.529690704	32.602
9.512204634	33.3681
9.494782617	34.1347
9.477424301	34.8847
9.460138288	35.6845
9.4429063	36.4926
9.425736975	37.2558
9.408629972	38.0272
9.391584952	38.7655
9.374601579	39.4569
9.35767952	40.1176
9.340818443	40.7543
9.324018018	41.3266
9.307277919	41.8788
9.290597822	42.3558
9.273977405	42.7528
9.257416348	43.0668
9.240914333	43.41
9.224471046	43.7055
9.208086173	43.9848
9.191759404	44.2992
9.17549043	44.6054
9.159278945	44.9052
9.143124645	45.1766
9.127027227	45.4725
9.110986392	45.7777
9.095001842	46.0302
9.079073281	46.2929
9.06320863	46.5707
9.04739114	46.8602
9.031628764	47.1571
9.015921215	47.5292
9.000268208	47.8954
8.984669459	48.2792
8.969124685	48.7919
8.953633608	49.3671
8.93819595	49.9706
8.922811435	50.6512
8.907479789	51.3641
8.89220074	52.0214
8.876974017	52.7098
8.861799353	53.4593
8.846676481	54.1737
8.831605135	54.7899
8.816585054	55.4286
8.801615977	56.1004
8.786697643	56.7293
8.771829795	57.3221
8.757012178	57.9305
8.742244536	58.536
8.727526619	59.0667
8.712858175	59.6112
8.69824652	60.1693
8.683676252	60.6805
8.669154714	61.1961
8.654681663	61.7484
8.640256858	62.2738
8.625880055	62.7244
8.611551018	63.2196
8.597269507	63.7581
8.583035287	64.3309
8.568848124	64.7816
8.554707784	65.2718
8.540614036	65.7318
8.52656665	66.1873
8.512565398	66.6458
8.498610052	67.1629
8.484700388	67.6771
8.470836182	68.161
8.45701721	68.6697
8.443243252	69.1829
8.429514089	69.7054
8.415829502	70.2943
8.402189274	70.8885
8.388593191	71.4473
8.375041038	72.0174
8.361539594	72.5694
8.348074642	73.1102
8.334652987	73.6053
8.32127442	74.1072
8.307938734	74.5809
8.294645723	75.0438
8.281395183	75.4705
8.268186911	75.9148
8.255020704	76.3621
8.241896361	76.7784
8.228813685	77.1602
8.215772476	77.5577
8.202772537	77.9002
8.189813674	78.2283
8.176895691	78.5906
8.164018395	78.9219
8.151188239	79.2364
8.138391724	79.5313
8.125635323	79.8125
8.11291885	80.0711
8.100242116	80.335
8.087604937	80.6123
8.075007126	80.8975
8.062448501	81.1121
8.049928879	81.3301
8.037448078	81.5528
8.025005918	81.7693
8.012602221	81.9656
8.000236807	82.1975
7.9879095	82.4258
7.975620124	82.625
7.963368505	82.8055
7.951154468	83.0069
7.938977841	83.209
7.926838452	83.3797
7.914736131	83.5506
7.902670708	83.7149
7.890642014	83.8753
7.878649883	84.0459
7.866694148	84.2207
7.854780812	84.3484
7.842897355	84.4842
7.831049799	84.6302
7.819237984	84.7908
7.807461747	84.9553
7.795720929	85.1111
7.784015369	85.2061
7.772344909	85.3318
7.760709391	85.4883
7.749108659	85.6155
7.737542556	85.741
7.726010929	85.8711
7.714513623	85.9844
7.703050485	86.086
7.691621363	86.218
7.680226106	86.3406
7.668864563	86.4805
7.657536586	86.573
7.646242025	86.6719
7.634980733	86.783
7.623752563	86.8958
7.61255737	86.9903
7.601395008	87.0869
7.590265333	87.1907
7.579173946	87.3164
7.568109199	87.4226
7.557076711	87.5401
7.546076342	87.6387
7.535107952	87.7498
7.524171401	87.8572
7.51326655	87.9463
7.502393263	88.0596
7.491551403	88.1475
7.480740833	88.2415
7.469961418	88.3428
7.459213023	88.4375
7.448495516	88.541
7.437808762	88.6211
7.42715263	88.6953
7.416526989	88.7976
7.405931707	88.8672
7.395366655	88.9656
7.384831703	89.0684
7.374326724	89.1387
7.363851589	89.2341
7.353406171	89.3174
7.342990345	89.4011
7.332603984	89.4968
7.322252325	89.5567
7.311924506	89.6331
7.30162578	89.7146
7.291356025	89.8181
7.281115117	89.8767
7.270902937	89.9104
7.260719363	89.991
7.250564275	90.073
7.240437554	90.1492
7.230339081	90.2595
7.220268738	90.3269
7.210226408	90.3086
7.200211974	90.2537
7.19022532	90.2383
7.18026633	90.2783
7.17033489	90.3096
7.160436013	90.3555
7.150559317	90.3855
7.140709829	90.4395
7.130887439	90.4922
7.121092034	90.5908
7.111323503	90.6834
7.101581735	90.7686
7.091866622	90.8174
7.082178053	90.8916
7.07251592	90.9727
7.062880115	91.0379
7.053270531	91.116
7.04368706	91.1338
7.034129597	91.1619
7.024598035	91.2234
7.01509227	91.2546
7.005612196	91.249
6.99615771	91.2754
6.986728709	91.3213
6.977325089	91.3504
6.967946748	91.4024
6.958593585	91.4707
6.949265497	91.4951
6.939962385	91.5408
6.930688952	91.5996
6.921435478	91.6836
6.912206681	91.7346
6.903002461	91.7744
6.893822721	91.794
6.884667364	91.8103
6.875536292	91.8447
6.866429409	91.8938
6.857346618	91.9111
6.848287825	91.8933
6.839252935	91.9041
6.830241852	91.9158
6.821254483	91.9168
6.812290735	91.9085
6.803350514	91.9578
6.794433728	92.0261
6.785540285	92.0557
6.776670093	92.1016
6.767823062	92.1416
6.7589991	92.2051
6.750198118	92.3076
6.741420026	92.3987
6.732664735	92.4473
6.723932156	92.5369
6.715226709	92.6003
6.706539278	92.668
6.697874296	92.7473
6.689231675	92.8259
6.680611329	92.8906
6.672013173	92.9522
6.663437121	92.9714
6.654883087	93.0281
6.646350987	93.0999
6.637840737	93.1699
6.629352253	93.1961
6.620885451	93.209
6.612440248	93.2595
6.604016563	93.325
6.595614312	93.3701
6.587233415	93.4121
6.578873789	93.4424
6.570535354	93.4805
6.56221803	93.4971
6.553921736	93.5176
6.545646392	93.5078
6.537391921	93.5535
6.529158241	93.5898
6.520945276	93.5615
6.512757189	93.5759
6.504585407	93.655
6.496434107	93.6992
6.488303211	93.6755
6.480192643	93.6885
6.472102327	93.6912
6.464032186	93.6941
6.455982145	93.7004
6.44795213	93.7246
6.439942066	93.7263
6.431951879	93.7666
6.423981494	93.8213
6.416030838	93.8396
6.408099838	93.8154
6.400188422	93.7627
6.392296516	93.7314
6.384424048	93.7439
6.376570948	93.7376
6.368737143	93.7185
6.360922563	93.6785
6.353127136	93.6426
6.345350793	93.6064
6.337593464	93.5159
6.329855078	93.4031
6.322139564	93.322
6.314438848	93.2207
6.30675687	93.1436
6.29909356	93.0418
6.291448851	92.9334
6.283822676	92.8203
6.276214965	92.7041
6.268625654	92.5857
6.261054675	92.449
6.253501961	92.3059
6.245967447	92.1013
6.238451067	91.8533
6.230952756	91.5674
6.223472449	91.242
6.21601008	90.8172
6.208565585	90.3506
6.201142747	89.8298
6.1937338	89.2793
6.186342535	88.7764
6.178968891	88.2608
6.171612803	87.7742
6.164274209	87.3653
6.156953047	87.0606
6.149649255	86.8447
6.14236277	86.7068
6.135093533	86.6218
6.12784148	86.6533
6.120606552	86.8855
6.113388688	87.2315
6.106187828	87.5567
6.099003911	87.8445
6.091836878	88.1404
6.084686669	88.4402
6.077553226	88.7459
6.070436489	88.9988
6.063336399	89.2149
6.056252899	89.4314
6.049185931	89.669
6.042135436	89.8484
6.035101357	90.0352
6.02808727	90.2285
6.021085843	90.3547
6.01410066	90.4365
6.007131667	90.5342
6.000178805	90.6572
5.99324202	90.8445
5.986321256	91.0213
5.979416457	91.1687
5.972527568	91.3867
5.965654534	91.5798
5.9587973	91.7634
5.951955813	91.9846
5.945130017	92.2061
5.938319859	92.4336
5.931525286	92.6279
5.924746243	92.7568
5.917982678	92.9197
5.911234538	93.0811
5.904501769	93.2146
5.89778432	93.3914
5.891082139	93.5252
5.884395172	93.6543
5.87772337	93.7869
5.871066679	93.8242
5.864428488	93.9336
5.85780186	94.03
5.851190191	94.1033
5.84459343	94.1602
5.838011527	94.2029
5.831444431	94.2947
5.824892094	94.3826
5.818354465	94.4353
5.811831494	94.4363
5.805323133	94.4883
5.798829332	94.5574
5.792350043	94.5916
5.785885217	94.6084
5.779434806	94.6707
5.772998761	94.7429
5.766577035	94.8291
5.760169579	94.8572
5.753776347	94.8699
5.747397291	94.9277
5.741032364	94.9773
5.734681519	95.0078
5.728344709	95.0166
5.722021888	95.0774
5.715713009	95.1338
5.709421287	95.1619
5.703140149	95.1785
5.696872816	95.1865
5.690619242	95.1921
5.684379382	95.2224
5.678153192	95.2578
5.671940626	95.2881
5.66574164	95.2986
5.659556189	95.3152
5.653384229	95.3652
5.647225716	95.4148
5.641080605	95.4509
5.634948854	95.4424
5.628830419	95.46
5.622725256	95.4668
5.616633323	95.4768
5.610557723	95.4805
5.604492113	95.5085
5.598439603	95.5234
5.592400152	95.5276
5.586373717	95.5293
5.580360257	95.5427
5.574359729	95.5676
5.568372092	95.5632
5.562397304	95.5613
5.556435324	95.5544
5.550486112	95.5488
5.544549625	95.5576
5.538625823	95.5559
5.532714665	95.5225
5.526816112	95.5154
5.520930122	95.5095
5.515056656	95.5071
5.509195674	95.4978
5.503347136	95.5222
5.497511002	95.5222
5.491687233	95.54
5.48587579	95.5388
5.480076633	95.5325
5.474289725	95.5557
5.468518015	95.5857
5.462755479	95.6306
5.457005076	95.6182
5.451266765	95.6221
5.445540511	95.6291
5.439826274	95.6475
5.434124016	95.6658
5.428433701	95.665
5.422755291	95.6902
5.417088748	95.7051
5.411434035	95.7092
5.405791116	95.7146
5.400159953	95.7236
5.394540509	95.7654
5.388932749	95.7751
5.383336635	95.791
5.377752132	95.8008
5.372179203	95.8447
5.366617813	95.8857
5.361067925	95.8943
5.355529504	95.9089
5.350002515	95.9434
5.344486921	95.9607
5.338982689	95.9792
5.333492627	96.0295
5.328011006	96.084
5.32254064	96.1133
5.317081497	96.1426
5.31163354	96.1465
5.306196736	96.1853
5.30077105	96.2197
5.295356449	96.24
5.289952898	96.248
5.284560364	96.2607
5.279178813	96.2793
5.273808212	96.2725
5.268448526	96.2947
5.263099724	96.3379
5.257761771	96.3816
5.252434635	96.3789
5.247118283	96.3896
5.241812682	96.4014
5.236517799	96.4363
5.231233603	96.4687
5.225960061	96.499
5.220697141	96.5029
5.21544481	96.5457
5.210203036	96.5486
5.204974498	96.5339
5.19975374	96.5593
5.194543444	96.5859
5.189343579	96.5937
5.184154115	96.6182
5.178975019	96.6101
5.173806261	96.6289
5.168647809	96.6453
5.163499634	96.6846
5.158361704	96.708
5.153233989	96.7305
5.148116459	96.7527
5.143009082	96.7715
5.137911829	96.7773
5.13282467	96.7978
5.127747575	96.8193
5.122680514	96.8142
5.117623458	96.8242
5.112576376	96.8494
5.107539239	96.864
5.102512018	96.8789
5.097494683	96.8699
5.092487206	96.8953
5.087489558	96.9158
5.082504292	96.9548
5.077526209	96.9558
5.072557868	96.9551
5.06759924	96.9744
5.062650297	96.9929
5.057711011	97.0002
5.052781354	97.0364
5.047861297	97.0862
5.042950812	97.0818
5.038049872	97.0681
5.033158448	97.1169
5.028276513	97.1404
5.023404039	97.1213
5.018541	97.1345
5.013687367	97.136
5.008843113	97.1536
5.004010715	97.1667
4.999185133	97.2146
4.994368849	97.2219
4.989561837	97.2224
4.984764069	97.2595
4.979975518	97.283
4.97519616	97.2815
4.970425966	97.2883
4.96566491	97.2922
4.960912967	97.3113
4.95617011	97.3494
4.951436313	97.4075
4.94671155	97.4119
4.941995795	97.3948
4.937289023	97.4407
4.932591209	97.4709
4.927902325	97.4656
4.923222347	97.4553
4.918551251	97.4607
4.913889009	97.4656
4.909235598	97.4871
4.904590991	97.5222
4.899955165	97.5247
4.895328095	97.5178
4.890712146	97.5222
4.886102507	97.532
4.88150155	97.5559
4.876909249	97.5681
4.87232558	97.5984
4.86775052	97.6067
4.863184043	97.6038
4.858626126	97.5867
4.854076745	97.6174
4.849535875	97.6379
4.845003493	97.6301
4.840479575	97.6462
4.835964098	97.6433
4.831457037	97.6296
4.826958369	97.6345
4.822468072	97.658
4.81798612	97.6697
4.813512492	97.7009
4.809047164	97.6951
4.804590113	97.6902
4.800141316	97.698
4.79570075	97.7546
4.791268392	97.7634
4.78684422	97.7371
4.782430498	97.7322
4.778022625	97.7429
4.773622869	97.7478
4.769231209	97.7634
4.764847623	97.7703
4.760472086	97.78
4.756104579	97.7688
4.751745078	97.7668
4.747393562	97.783
4.743050009	97.7956
4.738714396	97.8064
4.734386703	97.7888
4.730066907	97.7888
4.725754987	97.7942
4.721450921	97.8181
4.717154688	97.8122
4.712866266	97.8376
4.708585635	97.842
4.704312773	97.8562
4.700047658	97.8757
4.695790271	97.9123
4.691540589	97.9099
4.687298593	97.9006
4.68306426	97.9065
4.67883976	97.948
4.67462069	97.9514
4.670409221	97.9412
4.666205334	97.9285
4.662009009	97.9509
4.657820224	97.9353
4.65363896	97.9495
4.649465195	97.9626
4.645298911	97.9944
4.641140087	97.9958
4.636988702	97.9763
4.632844738	97.9841
4.628708174	98.0046
4.62457899	98.0222
4.620457167	98.0154
4.616342684	98.0286
4.612235523	98.0525
4.608135664	98.0417
4.604043086	98.0593
4.599957772	98.0964
4.595879702	98.1189
4.591808856	98.1052
4.587745215	98.1233
4.58368876	98.1257
4.57964157	98.1003
4.575599426	98.1335
4.571564412	98.1423
4.567536508	98.1531
4.563515696	98.1638
4.559501956	98.1672
4.555495271	98.1599
4.551495621	98.1677
4.547502989	98.1731
4.543517355	98.1721
4.539538701	98.177
4.535567009	98.2034
4.531602261	98.2009
4.527644439	98.2073
4.523693523	98.1999
4.519749497	98.2405
4.515814382	98.2224
4.511884077	98.2117
4.507960608	98.2078
4.504043956	98.238
4.500134104	98.238
4.496231034	98.2537
4.492334729	98.2644
4.488445171	98.3005
4.484562343	98.3288
4.480686226	98.3279
4.476816804	98.3318
4.47295406	98.3538
4.469097975	98.3689
4.465248534	98.3513
4.461405718	98.3611
4.45756951	98.385
4.453739894	98.3953
4.449916853	98.3674
4.44610037	98.3738
4.442290427	98.4104
4.438487009	98.4138
4.434690097	98.3913
4.430899676	98.4455
4.42711573	98.4763
4.423340197	98.4841
4.419569145	98.5085
4.415804518	98.531
4.412046298	98.5154
4.408294471	98.5413
4.404549018	98.5417
4.400809925	98.574
4.397077175	98.5998
4.393350752	98.6101
4.389630639	98.6218
4.385916821	98.6194
4.382209282	98.6355
4.378508006	98.657
4.374812977	98.6785
4.371124179	98.6599
4.367441596	98.6736
4.363765214	98.6741
4.360095015	98.6819
4.356430985	98.6477
4.352773108	98.6404
4.349121369	98.6453
4.345475751	98.6448
4.341836241	98.6609
4.338202821	98.6985
4.334577357	98.7165
4.330956072	98.7161
4.327340832	98.719
4.323731623	98.738
4.320128429	98.74
4.316531235	98.7322
4.312940028	98.699
4.30935479	98.6995
4.305775509	98.7029
4.302202168	98.6721
4.298634754	98.6838
4.29507325	98.6916
4.291517644	98.6355
4.287967919	98.6033
4.284424062	98.6428
4.280886058	98.6453
4.277353892	98.6658
4.27382755	98.6653
4.270307018	98.6892
4.266792281	98.7126
4.263283325	98.7546
4.259780136	98.8191
4.256282699	98.8752
4.252791	98.8401
4.249306832	98.8245
4.245826565	98.8201
4.242351994	98.7854
4.238883105	98.7839
4.235419885	98.7732
4.231962319	98.7654
4.228510393	98.762
4.225064094	98.8235
4.221623408	98.8455
4.218188322	98.8323
4.214758821	98.883
4.211334892	98.9412
4.207916522	98.9592
4.204503696	98.9675
4.201096402	98.9851
4.197694626	99.0051
4.194300114	99.0154
4.190909331	99.0476
4.187524026	99.0642
4.184144186	99.0764
4.180769797	99.0701
4.177400846	99.0842
4.174037321	99.1072
4.170679208	99.1589
4.167326493	99.155
4.163979165	99.1531
4.16063721	99.1453
4.157300615	99.1853
4.153969367	99.2126
4.150643454	99.1721
4.147322862	99.1453
4.144007579	99.1453
4.140697592	99.1584
4.137392888	99.1775
4.134093455	99.1755
4.130799281	99.1584
4.127510352	99.1623
4.124226656	99.1755
4.120948181	99.1819
4.117674914	99.2068
4.114408535	99.2405
4.111145645	99.2522
4.107887925	99.2366
4.104635365	99.26
4.101387951	99.2869
4.098145671	99.2834
4.094908514	99.239
4.091676466	99.258
4.088449517	99.2834
4.085227653	99.2859
4.082010864	99.2678
4.078799136	99.2644
4.075592459	99.2712
4.072390819	99.2468
4.069194206	99.2429
4.066002607	99.28
4.062816011	99.3088
4.059634406	99.2937
4.056457779	99.2952
4.053286121	99.2732
4.050119418	99.2956
4.046957659	99.3103
4.043800833	99.3396
4.040648928	99.2888
4.037503563	99.2912
4.034361463	99.3572
4.031224251	99.3518
4.028091913	99.3132
4.024964439	99.3245
4.021841819	99.3601
4.018724039	99.3826
4.01561109	99.3713
4.012502959	99.3562
4.009399637	99.363
4.00630111	99.3728
4.00320737	99.3752
4.000118404	99.3787
3.997034201	99.342
3.99395475	99.3347
3.990880041	99.3323
3.987810062	99.3357
3.984744803	99.3484
3.981684252	99.3445
3.9786284	99.3669
3.975577234	99.3806
3.972530744	99.3967
3.96948892	99.3699
3.966451751	99.4006
3.963420797	99.3948
3.960392903	99.4026
3.957369631	99.4402
3.954350972	99.4475
3.951336915	99.4612
3.948327449	99.4587
3.945322564	99.4968
3.942322249	99.508
3.939326493	99.4626
3.936335288	99.4807
3.933348621	99.5159
3.930366483	99.5232
3.927388864	99.5193
3.924415753	99.5515
3.921447139	99.5881
3.918483014	99.5837
3.915523366	99.5759
3.912568186	99.5564
3.909617463	99.5725
3.906671188	99.5725
3.90372935	99.5486
3.900791939	99.553
3.897858945	99.5535
3.894930359	99.5525
3.892007684	99.529
3.889087881	99.5076
3.886172454	99.5349
3.883261396	99.5525
3.880354695	99.5408
3.877452343	99.5432
3.874554329	99.5622
3.871660644	99.5691
3.868771278	99.5652
3.865886222	99.5554
3.863005465	99.5759
3.860128998	99.5622
3.857256812	99.613
3.854388896	99.6296
3.851525243	99.6409
3.848665841	99.6716
3.845812161	99.6623
3.842961232	99.6804
3.840114528	99.6999
3.837272037	99.6975
3.834433752	99.6819
3.831599662	99.7156
3.828769759	99.7327
3.825944033	99.7151
3.823122474	99.7136
3.820305074	99.7287
3.817491824	99.7229
3.814682714	99.7126
3.811877735	99.7322
3.809076878	99.7146
3.806280134	99.7341
3.803487494	99.739
3.800698949	99.7644
3.797914489	99.7751
3.795134107	99.7673
3.792357792	99.7331
3.789585537	99.7351
3.786817332	99.7463
3.784053167	99.7683
3.781293036	99.7771
3.778538356	99.7585
3.77578626	99.7663
3.773038171	99.7869
3.770294079	99.7771
3.767553976	99.7366
3.764817852	99.7302
3.7620857	99.7527
3.759357511	99.7776
3.756633275	99.7541
3.753912985	99.7576
3.751196632	99.7605
3.748484207	99.7829
3.745775701	99.7917
3.743071107	99.8054
3.740370416	99.8181
3.73767362	99.8108
3.734980709	99.7932
3.732291676	99.7756
3.729606512	99.7815
3.726925208	99.7683
3.724247758	99.7927
3.721574151	99.8049
3.718904381	99.7859
3.716238438	99.7878
3.713577694	99.782
3.71091938	99.7478
3.708264869	99.7561
3.705614154	99.7771
3.702967225	99.7615
3.700324074	99.7507
3.697684695	99.7756
3.695049078	99.762
3.692417215	99.7556
3.689789099	99.7776
3.687164722	99.7351
3.684544075	99.7756
3.68192715	99.779
3.67931394	99.7995
3.676704437	99.803
3.674098633	99.8147
3.67149652	99.7873
3.66889809	99.7776
3.666303336	99.803
3.663712249	99.7937
3.661124822	99.803
3.658541047	99.8323
3.655960916	99.824
3.653384422	99.8083
3.65081289	99.823
3.648243644	99.8464
3.645678012	99.8454
3.643115986	99.8484
3.640557559	99.8542
3.638002722	99.8284
3.635451469	99.8259
3.632903791	99.8347
3.630359682	99.801
3.627819133	99.8025
3.625282138	99.8552
3.622748688	99.8318
3.620218777	99.7908
3.617692397	99.8122
3.615169541	99.8113
3.6126502	99.8303
3.610135673	99.803
3.607623341	99.8191
3.605114504	99.822
3.602609154	99.8323
3.600107283	99.8284
3.597608885	99.8049
3.595113953	99.8288
3.592622478	99.8166
3.590134454	99.8445
3.587649874	99.8342
3.585168731	99.822
3.582691017	99.8401
3.580216725	99.8127
3.577745848	99.7869
3.57527838	99.8298
3.572814313	99.8591
3.57035364	99.8498
3.567896354	99.8498
3.565442448	99.821
3.562991916	99.8069
3.560544749	99.8147
3.558100942	99.8122
3.555660487	99.779
3.553223378	99.762
3.550790868	99.781
3.548360427	99.7869
3.545933311	99.8127
3.543509513	99.8318
3.541089027	99.7956
3.538671844	99.779
3.53625796	99.8049
3.533847367	99.8635
3.531440058	99.844
3.529036026	99.8655
3.526635266	99.8513
3.524237769	99.862
3.52184353	99.8967
3.519452542	99.9377
3.517064798	99.9319
3.514680292	99.9162
3.512299017	99.9651
3.509920967	100.03
3.507546135	100.0691
3.505174514	100.1091
3.502806098	100.1116
3.500440881	100.1169
3.498078855	100.1208
3.495720015	100.0354
3.493365575	99.9714
3.491013085	99.9768
3.488663762	100.0237
3.486317598	99.9768
3.483974588	99.9104
3.481634725	99.9499
3.479298003	99.905
3.476964415	99.8967
3.474633956	99.8757
3.472306619	99.863
3.469982397	99.8557
3.467661284	99.883
3.465343275	99.8791
3.463028363	99.8772
3.460716541	99.8923
3.458407804	99.8811
3.456102146	99.9065
3.453799559	99.9475
3.451500039	99.947
3.449203579	99.9949
3.446910172	99.9787
3.444619814	99.9841
3.442332497	99.9997
3.440048216	100.0041
3.437768146	100.0701
3.435489916	100.0808
3.433214704	100.1228
3.430942504	100.1833
3.428673309	100.2244
3.426407114	100.2361
3.424143913	100.2561
3.421883699	100.2995
3.419626467	100.2966
3.417372212	100.2502
3.415120926	100.1916
3.412872605	100.1794
3.410627242	100.1077
3.408384831	100.0466
3.406145367	100.0115
3.403908845	99.9724
3.401675257	99.9138
3.399444599	99.865
3.397216864	99.8357
3.394992047	99.8454
3.392770143	99.8122
3.390551144	99.7927
3.388335047	99.7302
3.386121844	99.7229
3.383912676	99.7014
3.381705245	99.6741
3.379500692	99.6155
3.377299012	99.592
3.375100198	99.5603
3.372904246	99.551
3.370711149	99.5432
3.368520903	99.5408
3.366333501	99.4646
3.364148938	99.4704
3.361967208	99.4104
3.359788306	99.3616
3.357612227	99.3103
3.355438965	99.322
3.353268515	99.324
3.35110087	99.2834
3.348937148	99.26
3.346775098	99.2366
3.344615837	99.2463
3.342459362	99.1682
3.340305665	99.1443
3.338154741	99.1506
3.336006587	99.1326
3.333861195	99.0764
3.33171856	99.0329
3.329578678	99.0061
3.327441544	99.0705
3.32530715	99.0139
3.323175494	98.9685
3.321046568	99.0276
3.318920368	99.012
3.31679689	98.9587
3.314676126	98.9158
3.312558073	98.9065
3.310442725	98.885
3.308330077	98.8767
3.306220124	98.9001
3.304112861	98.8708
3.302008281	98.8435
3.299906382	98.7947
3.297808244	98.8088
3.295711686	98.7795
3.293617792	98.7346
3.291526557	98.7341
3.289437976	98.7576
3.287352045	98.7131
3.285268756	98.6409
3.283188107	98.6428
3.281110091	98.654
3.279034705	98.6287
3.276961942	98.594
3.274891798	98.5315
3.272824267	98.5432
3.270759346	98.5471
3.268697029	98.4978
3.26663731	98.4792
3.264580186	98.4392
3.262525652	98.4099
3.260473701	98.3347
3.25842433	98.2869
3.256377534	98.2361
3.254333308	98.1814
3.252291646	98.1726
3.250252545	98.1492
3.248217054	98.1072
3.246183057	98.1062
3.244151606	98.0789
3.242122696	98.0388
3.240096322	97.9851
3.238072479	97.9958
3.236051163	97.9294
3.234032369	97.8308
3.232016093	97.7839
3.230002329	97.7742
3.227991073	97.6882
3.22598232	97.6228
3.223976065	97.6101
3.221972305	97.5994
3.219971033	97.5486
3.217972246	97.5242
3.215975939	97.489
3.213982108	97.3943
3.211990747	97.3601
3.210001852	97.3337
3.208015419	97.3113
3.206031443	97.2498
3.204049919	97.1648
3.202070843	97.1091
3.200095235	97.0583
3.19812104	96.9792
3.196149279	96.9285
3.194179949	96.9158
3.192213043	96.8279
3.190248559	96.7517
3.18828649	96.6755
3.186326834	96.6335
3.184369586	96.5915
3.18241474	96.4734
3.180462293	96.446
3.17851224	96.408
3.176564577	96.3416
3.1746193	96.2546
3.172676403	96.2029
3.170735883	96.1707
3.168797736	96.0681
3.166861956	96.0017
3.164928541	95.9636
3.162997484	95.906
3.161068783	95.8054
3.159142432	95.7214
3.157218427	95.6716
3.155296765	95.5808
3.153378435	95.4783
3.151461443	95.4236
3.14954678	95.3259
3.147634443	95.2107
3.145724426	95.1121
3.143816726	95.0115
3.141911338	94.9509
3.140008258	94.8435
3.138107483	94.782
3.136209007	94.6902
3.134312827	94.6111
3.132418938	94.4626
3.130527337	94.3484
3.128638019	94.2429
3.126750981	94.1843
3.124866217	94.1345
3.122984699	94.0398
3.121104471	93.9568
3.119226507	93.8494
3.1173508	93.7712
3.115477349	93.7009
3.113606148	93.6912
3.111737193	93.5877
3.10987048	93.4275
3.108006006	93.3552
3.106143766	93.2517
3.104283756	93.1951
3.102425973	93.156
3.100570412	93.0798
3.098717069	93.0711
3.096865941	93.0144
3.095017023	92.9548
3.093170311	92.9353
3.091325802	92.8962
3.089483491	92.8562
3.087643375	92.7898
3.085805449	92.7468
3.08396971	92.6716
3.082136155	92.6384
3.080304778	92.572
3.078476524	92.5554
3.076649492	92.5125
3.074824627	92.5232
3.073001926	92.4939
3.071181385	92.3982
3.069363	92.3396
3.067546766	92.2537
3.065732681	92.1599
3.06392074	92.1238
3.06211094	92.0466
3.060303276	92.0017
3.058497745	91.989
3.056694344	91.9334
3.054893068	91.8328
3.053093914	91.6814
3.051296877	91.6082
3.049501955	91.5447
3.047709144	91.4841
3.045918439	91.3826
3.044129837	91.3005
3.042343335	91.2127
3.040558928	91.1072
3.038776613	90.9822
3.036996386	90.8406
3.035219166	90.7156
3.033443104	90.6365
3.031669119	90.5154
3.029897208	90.4158
3.028127367	90.2703
3.026359592	90.1502
3.02459388	90.033
3.022830228	89.8513
3.021068631	89.7107
3.019309085	89.5681
3.017551589	89.4539
3.015796137	89.3826
3.014042726	89.197
3.012291354	89.0506
3.010542015	88.9402
3.008794707	88.8142
3.007049426	88.697
3.005306169	88.5642
3.003564931	88.4822
3.00182571	88.3484
3.000088503	88.2429
2.998353304	88.0662
2.996620112	87.9724
2.994888923	87.8279
2.993160628	87.7859
2.991433432	87.6726
2.989708228	87.5867
2.987985013	87.5086
2.986263784	87.4646
2.984544536	87.3631
2.982827267	87.2312
2.981111973	87.1101
2.97939865	87.031
2.977687296	86.9099
2.975977906	86.7908
2.974270478	86.656
2.972565009	86.5545
2.970861493	86.406
2.96915993	86.2517
2.967460314	86.1306
2.965763522	85.9959
2.964067792	85.9138
2.962373999	85.8904
2.960682141	85.7771
2.958992215	85.6687
2.957304216	85.6179
2.955618142	85.6345
2.95393399	85.5945
2.952251756	85.5711
2.950571437	85.4656
2.94889303	85.3992
2.947216531	85.3679
2.945541937	85.3719
2.943869245	85.3435
2.942198452	85.3211
2.940529554	85.281
2.938862549	85.3142
2.937197432	85.2674
2.935534201	85.2429
2.933872853	85.2068
2.932213384	85.1375
2.930555792	85.0828
2.928900072	85.114
2.927246222	85.114
2.925595095	85.1219
2.923944975	85.1658
2.922296715	85.199
2.920650312	85.1365
2.919005763	85.1756
2.917363066	85.1678
2.915722216	85.1599
2.91408321	85.1648
2.912446047	85.2039
2.910810722	85.242
2.909177232	85.2498
2.907545575	85.2195
2.905915747	85.3025
2.904287745	85.4158
2.902661566	85.4138
2.901037208	85.3728
2.899414666	85.3806
2.897793938	85.4099
2.896175022	85.5008
2.894557913	85.6052
2.892942609	85.7195
2.891329106	85.7742
2.889717403	85.7742
2.888107495	85.8367
2.886500214	85.8455
2.884893888	85.8631
2.883289349	85.9461
2.881686594	86.0056
2.880085619	86.0008
2.878486423	86.0271
2.876889001	86.1131
2.875293352	86.1883
2.873699471	86.2703
2.872107357	86.3015
2.870517006	86.365
2.868928415	86.3904
2.867341582	86.3914
2.865756502	86.4265
2.864173175	86.4588
2.862591596	86.489
2.861011762	86.5867
2.859433672	86.6414
2.857857321	86.6804
2.856282708	86.7234
2.854709829	86.7468
2.853138681	86.8513
2.851569261	86.9451
2.850001568	87.0779
2.848436408	87.2342
2.846872156	87.2849
2.845309621	87.3679
2.8437488	87.4461
2.842189691	87.5642
2.840632291	87.617
2.839076596	87.6922
2.837522604	87.782
2.835970313	87.8494
2.834419719	87.947
2.83287082	87.9422
2.831323613	87.9763
2.829778094	87.9861
2.828234263	88.0642
2.826692114	87.9998
2.825151647	87.9763
2.823612858	88.0701
2.822075744	87.9929
2.820540303	87.9998
2.819006531	88.0008
2.817474427	87.9724
2.815943987	87.9197
2.81441521	87.9216
2.812888091	87.8631
2.811363418	87.7634
2.809839609	87.6414
2.80831745	87.5564
2.806796939	87.4959
2.805278075	87.407
2.803760853	87.2322
2.802245271	87.1453
2.800731327	87.0125
2.799219018	86.8357
2.797708341	86.5789
2.796199294	86.3562
2.794691874	86.1258
2.793186078	85.9295
2.791681905	85.6609
2.79017935	85.2664
2.788678412	84.9265
2.787179865	84.6463
2.785682151	84.239
2.784186046	83.9217
2.782691547	83.6961
2.781198652	83.3445
2.779707358	82.9842
2.778217662	82.6765
2.776729562	82.281
2.775243056	81.9148
2.77375814	81.6365
2.772274812	81.2928
2.77079307	80.9617
2.769312911	80.6326
2.767834333	80.3943
2.766357333	80.1922
2.764881908	80.0057
2.763408056	79.8914
2.761935774	79.7312
2.760465061	79.7889
2.758995913	79.8455
2.757528328	80.0115
2.756062304	80.2234
2.754597837	80.535
2.753134926	80.8279
2.751674325	81.2459
2.750214517	81.6844
2.748756257	82.2156
2.747299542	82.7791
2.74584437	83.326
2.74439074	83.8953
2.742938647	84.4314
2.741488091	84.9138
2.740039067	85.4265
2.738591575	85.825
2.737145611	86.2693
2.735701174	86.6365
2.73425826	87.0633
2.732816867	87.4646
2.731376994	87.8523
2.729938636	88.2693
2.728501793	88.7068
2.727066462	89.1287
2.72563264	89.5623
2.724200325	89.9724
2.722769514	90.3416
2.721340206	90.7156
2.719912397	91.1179
2.718486086	91.5281
2.717062008	91.8865
2.715638684	92.1726
2.714216851	92.4685
2.712796505	92.863
2.711377646	93.2078
2.709960269	93.4304
2.708544374	93.6326
2.707129958	93.9617
2.705717018	94.2693
2.704305552	94.6248
2.702895558	94.8904
2.701487034	95.2107
2.700079976	95.4656
2.698674384	95.7537
2.697270255	95.9763
2.695867585	96.2048
2.694466374	96.4343
2.693066619	96.5779
2.691668318	96.8054
2.690271467	96.9177
2.688876066	97.074
2.687482111	97.1365
2.686089602	97.2468
2.684698534	97.3279
2.683309626	97.4568
2.681921436	97.5037
2.680534681	97.5525
2.679149359	97.6804
2.677765469	97.7771
2.676383008	97.8054
2.675001973	97.7615
2.673622363	97.7546
2.672244175	97.8552
2.670867407	97.9783
2.669492057	97.989
2.668118123	98.0154
2.666745602	98.0466
2.665374493	98.0945
2.664004793	98.1687
2.6626365	98.1414
2.66127032	98.0974
2.659904834	98.1365
2.658540748	98.1677
2.657178061	98.1951
2.65581677	98.1921
2.654456873	98.2615
2.653098368	98.2771
2.651741253	98.3445
2.650385525	98.3787
2.649031183	98.4148
2.647678224	98.3396
2.646326647	98.3562
2.644976449	98.4333
2.643627628	98.4851
2.642280182	98.449
2.640934109	98.4626
2.639589407	98.5544
2.638246073	98.5974
2.636904106	98.6326
2.635563503	98.6853
2.634224263	98.6521
2.632886383	98.6501
2.631549862	98.6208
2.630214697	98.6599
2.628881577	98.7009
2.627549117	98.7341
2.626218007	98.7126
2.624888245	98.7478
2.62355983	98.8298
2.622232758	98.8318
2.620907028	98.8767
2.619582638	98.8845
2.618259585	98.8708
2.616937869	98.8806
2.615617486	98.9451
2.614298435	98.8943
2.612980713	98.9197
2.61166432	98.9665
2.610349252	98.9412
2.609035507	98.9177
2.607723085	98.9685
2.606411982	99.0037
2.605102197	98.9665
2.603793727	98.949
2.602486572	98.9236
2.601180728	98.9958
2.599876194	99.0271
2.598572968	99.0095
2.597271722	99.0544
2.595971105	99.1013
2.59467179	99.1111
2.593373774	99.1267
2.592077057	99.0876
2.590781636	99.1892
2.589487509	99.2087
2.588194675	99.2771
2.58690313	99.238
2.585612874	99.3201
2.584323905	99.3279
2.58303622	99.3474
2.581749817	99.363
2.580464695	99.4138
2.579180852	99.3787
2.577898286	99.3806
2.576616995	99.3787
2.575336976	99.3943
2.574058229	99.4177
2.572780751	99.4294
2.571504541	99.4529
2.570229596	99.4626
2.568955915	99.4333
2.567683495	99.4431
2.566412994	99.4626
2.565143091	99.4997
2.563874445	99.4978
2.562607053	99.4568
2.561340913	99.5017
2.560076024	99.4021
2.558812384	99.447
2.55754999	99.4392
2.556288841	99.4392
2.555028936	99.5115
2.553770272	99.4529
2.552512847	99.3806
2.55125666	99.3943
2.550001709	99.4138
2.548747991	99.3982
2.547495506	99.3826
2.546244252	99.363
2.544994225	99.5564
2.543745426	99.6423
2.542497852	99.5837
2.5412515	99.5681
2.54000637	99.5232
2.53876246	99.5622
2.537519767	99.6091
2.536278934	99.6287
2.535038671	99.5857
2.53379962	99.6052
2.53256178	99.531
2.531325149	99.5076
2.530089725	99.4861
2.528855506	99.4372
2.52762249	99.4568
2.526390677	99.4294
2.525160064	99.4724
2.523930648	99.4275
2.52270243	99.4412
2.521475406	99.4099
2.520249575	99.4079
2.519024936	99.5037
2.517801486	99.5759
2.516579857	99.6208
2.515358781	99.6892
2.514138889	99.7576
2.512920179	99.7908
2.511702651	99.8513
2.510486301	99.8513
2.50927113	99.8474
2.508057134	99.8279
2.506844312	99.9216
2.505632662	99.9314
2.504422183	99.7576
2.503212874	99.8181
2.502004731	99.863
2.500797754	99.8142
2.499591942	99.7693
2.498387291	99.8201
2.497183801	99.8357
2.49598147	99.7986
2.494780296	99.7615
2.493580278	99.7947
2.492381413	99.8298
2.491183701	99.6619
2.489987139	99.7537
2.488791726	99.7732
2.48759808	99.7283
2.486404959	99.8611
2.485212983	99.8845
2.484022149	99.8923
2.482832455	99.9333
2.4816439	100.0388
2.480456483	100.0251
2.479270202	100.0662
2.478085055	99.9861
2.47690104	100.0427
2.475718156	100.1501
2.474536402	100.2126
2.473355775	100.0935
2.472176274	99.9997
2.470997898	100.0154
2.469820644	100.0505
2.468644512	100.0173
2.467469499	100.0095
2.466295604	100.0017
2.465122826	100.1521
2.463951163	100.0193
2.462780612	99.988
2.461611174	100.0349
2.460442845	100.0544
2.45927623	100.0876
2.458110116	100.0564
2.456945108	99.947
2.455781204	100.0271
2.454618401	100.0329
2.4534567	100.1326
2.452296097	100.1404
2.451136592	100.1013
2.449978183	100.0935
2.448820868	100.1716
2.447664646	100.2029
2.446509516	100.0408
2.445355475	100.1638
2.444202523	100.1638
2.443050657	100.1872
2.441899876	100.1911
2.440750179	100.1091
2.439601564	100.1111
2.43845403	100.2536
2.437307575	100.2361
2.436162197	100.1501
2.435017895	99.9939
2.433874668	100.1247
2.432732513	100.2029
2.431592022	100.1423
2.430452008	100.2048
2.429313063	100.1052
2.428175185	100.197
2.427038372	100.1423
2.425902624	100.2204
2.424767938	100.2146
2.423634312	100.1951
2.422501747	100.197
2.421370239	100.1716
2.420239788	100.0857
2.419110392	100.0974
2.417982049	100.1091
2.416854758	100.0193
2.415728518	100.0154
2.414603328	100.1013
2.413479185	100.2439
2.412356088	100.4607
2.411234036	100.4314
2.410113027	100.5818
2.40899306	100.6169
2.407874134	100.4685
2.406756246	100.5564
2.405639396	100.6189
2.40452416	100.5232
2.40340938	100.406
2.402295634	100.4392
2.401182919	100.3767
2.400071234	100.3923
2.398960578	100.2419
2.39785095	100.2576
2.396742348	100.2126
2.39563477	100.2185
2.394528216	100.1111
2.393422683	100.156
2.392318171	100.2673
2.391214677	100.2986
2.390112201	100.2829
2.389010742	100.3708
2.387910297	100.5036
2.386811435	100.4763
2.385713014	100.5954
2.384615605	100.5935
2.383519204	100.6521
2.382423811	100.7341
2.381329425	100.5798
2.380236043	100.4997
2.379143665	100.5271
2.37805229	100.6189
2.376961915	100.6482
2.375872539	100.6326
2.374784162	100.572
2.373696781	100.5583
2.372610396	100.5935
2.371525004	100.7126
2.370440606	100.8122
2.369357198	100.8767
2.368274781	100.8826
2.367193351	100.781
2.366112909	100.7673
2.365033453	100.7204
2.363954982	100.7224
2.362877493	100.6267
2.361800987	100.5349
2.360726018	100.5466
2.35965147	100.4861
2.3585779	100.4236
2.357505307	100.5154
2.356433688	100.4216
2.355363044	100.4607
2.354293372	100.6052
2.353224671	100.6814
2.35215694	100.6247
2.351090177	100.6169
2.350024382	100.7908
2.348959552	100.8669
2.347895687	100.9997
2.346832785	101.0115
2.345770845	101.0408
2.344709866	101.031
2.343649846	100.9314
2.342590784	100.9333
2.341532678	100.9216
2.340475528	100.9607
2.339419333	100.9294
2.33836409	100.9001
2.337309798	100.7986
2.336256457	100.8122
2.335204611	100.8298
2.334153166	100.8142
2.333102667	100.7283
2.332053114	100.7849
2.331004504	100.8982
2.329956838	100.8122
2.328910112	100.6716
2.327864326	100.8357
2.32681948	100.9372
2.325775571	100.8669
2.324732598	100.8454
2.32369056	100.8826
2.322649456	100.947
2.321609284	100.8767
2.320570043	100.8064
2.319531733	100.9079
2.318494351	101.0173
2.317457897	100.9216
2.316422369	100.8923
2.315387766	101.0876
2.314354087	101.156
2.31332133	101.0857
2.312289495	101.1169
2.31125858	101.1579
2.310229117	101.072
2.309200038	101.1033
2.308171875	101.0154
2.307144627	101.0935
2.306118293	100.9685
2.305092872	100.9177
2.304068363	100.9548
2.303044763	101.0173
2.302022073	101.0154
2.301000291	101.0544
2.299979415	101.2283
2.298959445	101.2126
2.297940379	101.2029
2.296922216	101.1326
2.295904955	101.1658
2.294888595	101.2283
2.29387366	101.2576
2.292859097	101.2439
2.291845431	101.322
2.29083266	101.4568
2.289820785	101.2654
2.288809803	101.2439
2.287799713	101.2283
2.286790515	101.1579
2.285782206	101.2204
2.284774786	101.2829
2.283768254	101.2361
2.282762608	101.2126
2.281757848	101.2908
2.280753972	101.3669
2.279750978	101.4451
2.278748867	101.1794
2.277747636	101.4158
2.276747284	101.4079
2.275747811	101.2497
2.274749215	101.3357
2.273751494	101.4001
2.272754649	101.4451
2.271758677	101.4236
2.270763578	101.4529
2.269769866	101.3513
2.268776508	101.3396
2.267784019	101.4529
2.266792398	101.4255
2.265801644	101.3747
2.264811756	101.3513
2.263822732	101.4841
2.262834571	101.5505
2.261847273	101.4333
2.260860836	101.3122
2.259875259	101.363
2.258890541	101.2849
2.257906681	101.199
2.256923678	101.2693
2.25594153	101.3669
2.254960236	101.5622
2.253979796	101.5388
2.253000208	101.4333
2.252021471	101.4763
2.251043584	101.5974
2.250066546	101.738
2.249090355	101.656
2.248115012	101.5896
2.247140514	101.5661
2.246167365	101.531
2.245194554	101.5857
2.244222586	101.5818
2.243251458	101.5544
2.242281171	101.4724
2.241311723	101.449
2.240343113	101.488
2.23937534	101.6599
2.238408402	101.6833
2.237442299	101.5818
2.23647703	101.6286
2.235512593	102.0076
2.234548988	101.8201
2.233586213	101.6599
2.232624267	101.7029
2.231663149	101.7536
2.230702859	101.6716
2.229743394	101.4841
2.228784755	101.5427
2.22782694	101.6911
2.226869947	101.3826
2.225913777	101.156
2.224958427	101.2927
2.224003896	101.3044
2.223050679	101.3826
2.222097785	101.5349
2.221145707	101.5974
2.220194445	101.5701
2.219243997	101.5896
2.218294362	101.5466
2.21734554	101.6404
2.21639753	101.8318
2.215450329	101.8904
2.214503938	101.9099
2.213558355	101.8591
2.212613579	101.7576
2.211669609	101.6247
2.210726445	101.5154
2.209784084	101.6755
2.208842527	101.7146
2.207901771	101.6951
2.206961817	101.7419
2.206022662	101.7849
2.205084307	101.9724
2.204146749	102.0427
2.203209989	101.8865
2.202274024	101.7576
2.201338854	101.9372
2.200404963	101.863
2.199471379	101.7263
2.198538587	101.7146
2.197606587	101.8201
2.196675376	101.7966
2.195744954	101.8552
2.194815319	101.9294
2.193886472	102.0818
2.192958411	102.1286
2.192031134	102.1286
2.191104641	102.156
2.190178931	102.1169
2.189254003	102.1521
2.188329856	102.2224
2.187406488	102.4372
2.1864839	102.199
2.185562567	102.1169
2.184641533	102.031
2.183721275	102.113
2.182801792	102.031
2.181883083	101.8786
2.180965147	101.9099
2.180047983	101.9724
2.17913159	101.9685
2.178215967	102.0154
2.177301113	101.7107
2.176387028	101.9021
2.175473709	102.0974
2.174561157	102.0701
2.17364937	102.0857
2.172738348	102.0544
2.171828089	102.3474
2.170918592	102.3708
2.170009856	102.2419
2.169101881	102.3513
2.168194666	102.4216
2.167288209	102.4099
2.166382509	102.5193
2.165477567	102.4177
2.16457338	102.5505
2.163670416	102.7341
2.162767737	102.4841
2.161865811	102.4802
2.160964637	102.2654
2.160064214	102.2185
2.159164542	102.3826
2.158265618	102.3669
2.157367442	102.1794
2.156470014	102.2107
2.155573332	102.2849
2.154677395	102.3122
2.153782203	102.2536
2.152887754	102.2419
2.151994048	102.5857
2.151101084	102.4138
2.150208861	102.3474
2.149317377	102.363
2.148426632	102.4216
2.147536625	102.3083
2.146647355	102.4529
2.145758822	102.4255
2.144871024	102.3513
2.14398396	102.3161
2.143097629	102.3943
2.14221249	102.3435
2.141327623	102.4372
2.140443487	102.3669
2.139560081	102.2888
2.138677403	102.1169
2.137795454	101.9529
2.136914232	102.0857
2.136033736	102.0466
2.135153965	102.2185
2.134274919	102.3435
2.133396596	102.3357
2.132518995	102.3552
2.131642117	102.6208
2.130765959	102.57
2.129890521	102.6716
2.129015803	102.5544
2.128141802	102.6443
2.127268519	102.6404
2.126395952	102.4216
2.125524101	102.3318
2.124652964	102.531
2.123782542	102.5505
2.122912832	102.4841
2.122043834	102.4568
2.121175997	102.4724
2.12030842	102.7146
2.119441553	102.7732
2.118575394	102.6911
2.117709942	102.6911
2.116845198	102.8279
2.115981159	102.82
2.115117826	102.8825
2.114255197	103.1325
2.113393271	102.9255
2.112532047	102.863
2.111671525	103.1091
2.110811704	102.9841
2.109952583	102.8161
2.109094161	102.7536
2.108236437	102.8591
2.107379855	103.031
2.106523524	103.0779
2.105667889	102.8513
2.104812949	102.6716
2.103958703	102.7575
2.103105151	102.7536
2.10225229	102.656
2.101400121	102.8474
2.100548642	102.9841
2.099697853	103.156
2.098847754	102.9411
2.097998342	102.9099
2.097149617	102.7419
2.096301579	102.7263
2.095454226	102.8513
2.094607559	102.8513
2.093761575	102.7068
2.092916274	102.8669
2.092071655	103.07
2.091227718	102.8161
2.090384461	103.0193
2.089541885	103.1911
2.088699987	103.1013
2.087858767	103.031
2.08701866	103.2341
2.086178794	103.32
2.085339604	103.238
2.084501088	103.2029
2.083663247	103.1599
2.082826078	103.0622
2.081989583	103.1716
2.081153758	103.0154
2.080318605	102.5661
2.079484122	102.5466
