Name: Topaz Al2SiO4(F,OH)2
Type:  Mineral
Class:  Silicates 
Subclass:   Nesosilicates (Isolated tetrahedra)
Particle Size:  Fine  (Less than 2 Micrometers)
Sample No.: topaz.1
Owner:  JHU
Wavelength Range:  IR
Origin:  Rhondonia, Brazil via Don Hoover, USGS

Description: The sample was a 1 cm x 1 cm x 1 cm fragment of a 
single crystal.  It was colorless and appeared free of fluid inclusions 
under the microscope (however, the presence of a CO2 band at 4.3 
micrometers in the infrared reflectance spectra of particulate 
samples shows that fluid inclusions are present).

Measurement:  Transmittance 
First Column:  X
Second Column:  Y  
X Units:  Wavelength (micrometers)
Y Units:  Transmittance (percent)
First X Value:  25.0442
Last X Value:  2.079
Number of X Values:  2287
Additional Information:  topaz1a.txt

25.04420302	57.0936
24.9237955	61.4139
24.80454022	64.8592
24.68642074	67.035
24.5694209	68.3319
24.45358465	68.6561
24.3387763	68.6404
24.22504094	67.91
24.11236361	66.2576
24.00072962	63.9608
23.89012454	60.4842
23.78053421	56.1756
23.67194472	54.871
23.56434244	57.6327
23.45771395	59.2655
23.35204611	58.3124
23.24732598	56.4452
23.14354087	54.0155
23.04067832	50.6815
22.93872607	47.1522
22.83767211	43.4452
22.7375046	39.3905
22.63821194	35.328
22.53978272	31.1249
22.44220571	26.6562
22.3454699	22.4785
22.24956446	18.791
22.15447875	16.1347
22.06020229	14.8007
21.96677306	14.5859
21.87408402	15.1914
21.7821739	16.5703
21.69103293	18.3593
21.60065148	20.6816
21.5110201	23.1406
21.42212949	25.5702
21.33397051	28.6034
21.24653416	31.7148
21.15981159	32.7206
21.0737941	30.9628
20.98847313	27.4023
20.90384024	23.7734
20.81988716	21.1093
20.73660571	19.9003
20.65398787	20.4863
20.57202575	23.3281
20.49071156	27.2616
20.41003766	30.6425
20.3299965	32.8398
20.25058069	34.0351
20.1717829	34.2538
20.09359597	33.7968
20.01601281	33.0097
19.93906621	32.5116
19.8626695	32.4277
19.78685599	32.7421
19.71161901	33.0741
19.63695203	33.2079
19.56284859	32.4775
19.48930232	31.1249
19.41630698	29.2851
19.34385639	27.4189
19.27194448	25.7236
19.20056526	24.54
19.12971284	24.0283
19.05938141	24.2617
18.98956523	25.3105
18.92025868	27.2265
18.85145618	29.9853
18.78315226	33.3632
18.71534153	37.2851
18.64801865	41.6425
18.58117838	46.2665
18.51481556	50.7821
18.44892507	54.8846
18.38350191	58.3084
18.31854111	61.0086
18.25407111	62.5946
18.19002023	62.9217
18.12641726	61.953
18.06325753	59.4823
18.00053642	55.2977
17.93824937	50.4667
17.8763919	46.4081
17.81495958	43.9823
17.75394803	43.1913
17.69335296	44.5751
17.63317011	48.1337
17.57339529	53.2704
17.51402436	58.3719
17.45505324	62.0506
17.39647791	63.5682
17.3382944	63.1756
17.28049878	60.911
17.2230872	57.6727
17.16605584	54.7753
17.10940093	53.2626
17.05311876	53.2753
16.99720566	54.7811
16.94165801	57.2245
16.88647225	58.8924
16.83167317	58.6844
16.77720046	57.0604
16.72307919	54.3592
16.66930597	50.7694
16.61587747	46.4745
16.56279037	41.537
16.51004141	36.2821
16.45762737	30.8847
16.40554507	25.5937
16.35379138	20.5449
16.30236319	16.1142
16.25125744	12.4863
16.20047111	10.0117
16.15000121	8.5791
16.0998448	7.9228
16.04999896	7.9228
16.00048641	8.498
15.95125297	9.3926
15.90232158	10.4765
15.85368947	11.7158
15.80535391	13.2109
15.75731218	14.8398
15.70956162	16.5175
15.6620996	18.1367
15.61492349	19.7119
15.56803074	21.2539
15.52141878	22.5683
15.47508511	23.6572
15.42902725	24.5449
15.38324273	25.1572
15.33772913	25.6581
15.29248405	26.1093
15.24750513	26.6835
15.20279002	27.5917
15.1583364	29.0429
15.114142	31.2216
15.07020455	34.164
15.02652181	37.8251
14.98309158	42.0302
14.93991168	46.3436
14.89700213	50.4882
14.85431629	54.0555
14.81187438	56.8329
14.76967431	58.9276
14.72771402	60.5829
14.68599147	62.158
14.64450465	63.9266
14.60325156	65.8074
14.56223023	67.578
14.52143873	68.9344
14.48087511	70.0174
14.44053748	70.8885
14.40042395	71.3758
14.36053266	71.4891
14.32086177	71.2762
14.28140946	70.4217
14.24217393	69.0731
14.20315338	67.7459
14.16434607	66.8983
14.12575025	67.0106
14.0873642	68.3475
14.0491862	70.4451
14.01121458	72.5164
13.97344765	74.3084
13.93590321	75.6307
13.89854065	76.5965
13.8613779	77.2659
13.82441336	77.8401
13.78764544	78.3714
13.75107258	78.8113
13.71469324	79.2444
13.67850587	79.5935
13.64250897	79.7908
13.60670103	79.9319
13.57108057	80.0823
13.53564612	80.2029
13.50039624	80.3616
13.46532947	80.5232
13.4304444	80.6932
13.39573962	80.8147
13.36121373	80.8182
13.32686536	80.7771
13.29269314	80.7889
13.25869572	80.8318
13.22487175	80.805
13.19121992	80.6409
13.15773892	80.4861
13.12442745	80.1175
13.09130135	79.5447
13.05832501	78.9158
13.02551438	78.3768
12.99286821	78.0809
12.96038529	78.2137
12.92806437	78.6233
12.89590426	79.1155
12.86390376	79.5096
12.83206168	79.6365
12.80037684	79.7347
12.7688481	79.7483
12.73747429	79.7366
12.70625427	79.5516
12.67518693	79.3367
12.64427113	79.0457
12.61350579	78.6551
12.58290562	78.1619
12.55243781	77.6858
12.52211719	77.1873
12.4919427	76.6487
12.46191328	76.012
12.43202789	75.3973
12.40228549	74.7029
12.37268507	73.951
12.34322561	73.1292
12.31390609	72.2444
12.28472554	71.1409
12.25568296	69.9256
12.22677738	68.659
12.19800782	67.2127
12.16937334	65.5448
12.14087298	63.7235
12.1125058	61.8143
12.08427087	59.6864
12.05616727	57.4183
12.02819409	54.9159
12.00035041	52.1268
11.97263534	49.0546
11.945048	45.7914
11.9175875	42.3422
11.8902671	38.848
11.86305761	35.4198
11.83597236	32.2738
11.80901051	29.434
11.78217122	27.0082
11.75545365	24.7577
11.72885698	22.5371
11.70238038	20.2407
11.67602305	17.8266
11.64978419	15.4375
11.62366299	13.1494
11.59765866	11.1489
11.57177043	9.4687
11.54599752	8.1269
11.52033916	7.084
11.49479458	6.2578
11.46936304	5.6328
11.44404378	5.1465
11.41883606	4.7759
11.39373914	4.5766
11.3687523	4.5117
11.34387482	4.623
11.31910597	4.8481
11.29444505	5.2754
11.26990406	5.8125
11.24545684	6.3652
11.22111545	6.875
11.19687921	7.2134
11.17274743	7.4101
11.14871946	7.6269
11.12479461	7.8496
11.10097222	8.1528
11.07725165	8.645
11.05363222	9.2759
11.03011331	9.9321
11.00669427	10.6045
10.98337447	11.2959
10.96015327	11.8203
10.93703005	12.3525
10.9140042	12.8779
10.89107509	13.4082
10.86824213	13.9848
10.8455047	14.5922
10.82286221	15.0962
10.80031407	15.4931
10.77785969	15.7968
10.75549848	16.0371
10.73322986	16.1904
10.71106474	16.3032
10.68897956	16.3896
10.66698525	16.4594
10.64508128	16.5727
10.62326708	16.6665
10.6015421	16.6503
10.5799058	16.5839
10.55835763	16.5937
10.53689705	16.6279
10.51552354	16.7602
10.49423657	16.9775
10.4730356	17.3818
10.45192012	17.9365
10.43088962	18.6445
10.40994358	19.5405
10.38908149	20.6625
10.36830285	21.9677
10.34760717	23.4731
10.32699394	25.1137
10.30646267	26.936
10.28601287	28.8598
10.26564407	30.8193
10.24535578	32.6918
10.22514752	34.4228
10.20502924	35.9081
10.1849796	37.0731
10.16500858	37.9096
10.14511574	38.3769
10.12530059	38.4242
10.10556271	38.0199
10.08590162	37.1493
10.0663169	35.7567
10.04680808	34.0414
10.02737473	32.1996
10.00801642	30.5029
9.98873271	29.2128
9.969523168	28.5038
9.950387369	28.3969
9.931324888	28.7699
9.912335307	29.5004
9.893427994	30.5004
9.874582922	31.6435
9.855809507	32.8349
9.83710734	33.9579
9.818476015	34.995
9.799915133	35.9281
9.781424293	36.7641
9.7630031	37.5243
9.744651161	38.1718
9.726368087	38.7812
9.70815349	39.3632
9.690006986	39.9135
9.671928196	40.4711
9.653916739	41.0258
9.635972241	41.6142
9.618094328	42.2582
9.600282632	42.8915
9.582536785	43.5165
9.564856422	44.1112
9.547241181	44.6732
9.529690704	45.204
9.512204634	45.6835
9.494782617	46.1639
9.477424301	46.6249
9.460138288	47.0751
9.4429063	47.4852
9.425736975	47.8851
9.408629972	48.2235
9.391584952	48.5419
9.374601579	48.8417
9.35767952	49.1278
9.340818443	49.3553
9.324018018	49.5746
9.307277919	49.7899
9.290597822	50.0594
9.273977405	50.3129
9.257416348	50.5878
9.240914333	50.8641
9.224471046	51.1429
9.208086173	51.4208
9.191759404	51.7206
9.17549043	52.0204
9.159278945	52.3578
9.143124645	52.745
9.127027227	53.1356
9.110986392	53.5301
9.095001842	53.9657
9.079073281	54.4276
9.06320863	54.8934
9.04739114	55.3475
9.031628764	55.8377
9.015921215	56.2894
9.000268208	56.7757
8.984669459	57.2362
8.969124685	57.701
8.953633608	58.161
8.93819595	58.6854
8.922811435	59.117
8.907479789	59.5135
8.89220074	59.8871
8.876974017	60.2323
8.861799353	60.5643
8.846676481	60.8914
8.831605135	61.1991
8.816585054	61.5389
8.801615977	61.8944
8.786697643	62.2679
8.771829795	62.6395
8.757012178	62.9535
8.742244536	63.2332
8.727526619	63.4647
8.712858175	63.6253
8.69824652	63.6273
8.683676252	63.3743
8.669154714	62.7127
8.654681663	61.6092
8.640256858	59.9305
8.625880055	57.7909
8.611551018	55.6102
8.597269507	54.1732
8.583035287	54.0135
8.568848124	55.3211
8.554707784	57.7542
8.540614036	60.5999
8.52656665	63.2684
8.512565398	65.5545
8.498610052	67.4339
8.484700388	68.8655
8.470836182	70.014
8.45701721	71.015
8.443243252	71.9481
8.429514089	72.7776
8.415829502	73.6263
8.402189274	74.4041
8.388593191	75.1485
8.375041038	75.8152
8.361539594	76.5284
8.348074642	77.1697
8.334652987	77.7684
8.32127442	78.3965
8.307938734	79.0144
8.294645723	79.6092
8.281395183	80.1873
8.268186911	80.7676
8.255020704	81.2762
8.241896361	81.7813
8.228813685	82.3047
8.215772476	82.7537
8.202772537	83.1426
8.189813674	83.5901
8.176895691	83.9783
8.164018395	84.3233
8.151188239	84.6551
8.138391724	85.003
8.125635323	85.2783
8.11291885	85.5789
8.100242116	85.8701
8.087604937	86.1377
8.075007126	86.3616
8.062448501	86.627
8.049928879	86.8572
8.037448078	87.0652
8.025005918	87.2842
8.012602221	87.4832
8.000236807	87.6668
7.9879095	87.8438
7.975620124	88.0596
7.963368505	88.2383
7.951154468	88.4343
7.938977841	88.6121
7.926838452	88.7735
7.914736131	88.9246
7.902670708	89.114
7.890642014	89.2615
7.878649883	89.3836
7.866694148	89.4971
7.854780812	89.6756
7.842897355	89.7715
7.831049799	89.8604
7.819237984	89.9656
7.807461747	90.0498
7.795720929	90.1091
7.784015369	90.1775
7.772344909	90.2334
7.760709391	90.2839
7.749108659	90.4092
7.737542556	90.5213
7.726010929	90.5891
7.714513623	90.6238
7.703050485	90.7402
7.691621363	90.7986
7.680226106	90.8125
7.668864563	90.8875
7.657536586	90.9609
7.646242025	90.9951
7.634980733	91.0652
7.623752563	91.1047
7.61255737	91.1311
7.601395008	91.1785
7.590265333	91.2693
7.579173946	91.3225
7.568109199	91.3626
7.557076711	91.4346
7.546076342	91.4756
7.535107952	91.5188
7.524171401	91.5664
7.51326655	91.6209
7.502393263	91.6279
7.491551403	91.6648
7.480740833	91.708
7.469961418	91.7654
7.459213023	91.7576
7.448495516	91.801
7.437808762	91.8455
7.42715263	91.866
7.416526989	91.8601
7.405931707	91.8616
7.395366655	91.8386
7.384831703	91.8164
7.374326724	91.8223
7.363851589	91.8015
7.353406171	91.8054
7.342990345	91.8428
7.332603984	91.8665
7.322252325	91.8301
7.311924506	91.8342
7.30162578	91.8001
7.291356025	91.7842
7.281115117	91.7888
7.270902937	91.7927
7.260719363	91.7617
7.250564275	91.7705
7.240437554	91.7576
7.230339081	91.7627
7.220268738	91.7439
7.210226408	91.6633
7.200211974	91.5254
7.19022532	91.386
7.18026633	91.3035
7.17033489	91.2432
7.160436013	91.0808
7.150559317	90.9485
7.140709829	90.8904
7.130887439	90.8399
7.121092034	90.8689
7.111323503	90.9353
7.101581735	91.0059
7.091866622	91.0261
7.082178053	91.0564
7.07251592	91.0901
7.062880115	91.1165
7.053270531	91.1409
7.04368706	91.2
7.034129597	91.1394
7.024598035	91.1055
7.01509227	91.0964
7.005612196	91.1074
6.99615771	91.0891
6.986728709	91.0674
6.977325089	91.0652
6.967946748	91.0859
6.958593585	91.1406
6.949265497	91.1209
6.939962385	91.0818
6.930688952	91.0967
6.921435478	91.1301
6.912206681	91.1475
6.903002461	91.1453
6.893822721	91.1199
6.884667364	91.1155
6.875536292	91.114
6.866429409	91.2188
6.857346618	91.2471
6.848287825	91.1912
6.839252935	91.1924
6.830241852	91.3001
6.821254483	91.3367
6.812290735	91.3347
6.803350514	91.4004
6.794433728	91.5603
6.785540285	91.6775
6.776670093	91.7608
6.767823062	91.8723
6.7589991	91.9815
6.750198118	92.1191
6.741420026	92.2354
6.732664735	92.3425
6.723932156	92.458
6.715226709	92.5703
6.706539278	92.6594
6.697874296	92.7351
6.689231675	92.8652
6.680611329	93.0107
6.672013173	93.0693
6.663437121	93.126
6.654883087	93.1472
6.646350987	93.2627
6.637840737	93.4089
6.629352253	93.4143
6.620885451	93.3718
6.612440248	93.3997
6.604016563	93.4365
6.595614312	93.4805
6.587233415	93.5029
6.578873789	93.5476
6.570535354	93.6045
6.56221803	93.5615
6.553921736	93.5459
6.545646392	93.5439
6.537391921	93.5342
6.529158241	93.5457
6.520945276	93.5674
6.512757189	93.5193
6.504585407	93.5508
6.496434107	93.6575
6.488303211	93.6716
6.480192643	93.5935
6.472102327	93.543
6.464032186	93.4998
6.455982145	93.5007
6.44795213	93.4998
6.439942066	93.4844
6.431951879	93.4695
6.423981494	93.4763
6.416030838	93.5684
6.408099838	93.5205
6.400188422	93.3845
6.392296516	93.324
6.384424048	93.2586
6.376570948	93.2229
6.368737143	93.1765
6.360922563	93.0603
6.353127136	92.9793
6.345350793	93.0012
6.337593464	92.8884
6.329855078	92.7185
6.322139564	92.6702
6.314438848	92.6101
6.30675687	92.5027
6.29909356	92.3926
6.291448851	92.3086
6.283822676	92.1941
6.276214965	92.1365
6.268625654	92.0847
6.261054675	92.0147
6.253501961	91.9548
6.245967447	91.9099
6.238451067	91.8496
6.230952756	91.7898
6.223472449	91.7439
6.21601008	91.6897
6.208565585	91.613
6.201142747	91.5176
6.1937338	91.4109
6.186342535	91.3008
6.178968891	91.0779
6.171612803	90.7844
6.164274209	90.5684
6.156953047	90.3845
6.149649255	90.2236
6.14236277	90.1463
6.135093533	90.1152
6.12784148	90.1074
6.120606552	90.1365
6.113388688	90.156
6.106187828	90.1387
6.099003911	90.1423
6.091836878	90.2175
6.084686669	90.2488
6.077553226	90.3457
6.070436489	90.408
6.063336399	90.3533
6.056252899	90.3865
6.049185931	90.5293
6.042135436	90.4678
6.035101357	90.3828
6.02808727	90.47
6.021085843	90.6018
6.01410066	90.7842
6.007131667	90.9072
6.000178805	91.0466
5.99324202	91.2517
5.986321256	91.4529
5.979416457	91.6113
5.972527568	91.8201
5.965654534	92.0437
5.9587973	92.2295
5.951955813	92.4285
5.945130017	92.656
5.938319859	92.9902
5.931525286	93.2
5.924746243	93.3171
5.917982678	93.5359
5.911234538	93.7068
5.904501769	93.8889
5.89778432	94.1326
5.891082139	94.2878
5.884395172	94.4255
5.87772337	94.6074
5.871066679	94.655
5.864428488	94.7656
5.85780186	94.8533
5.851190191	94.9307
5.84459343	94.9939
5.838011527	95.0525
5.831444431	95.1338
5.824892094	95.283
5.818354465	95.3633
5.811831494	95.3464
5.805323133	95.408
5.798829332	95.4646
5.792350043	95.5066
5.785885217	95.5488
5.779434806	95.583
5.772998761	95.6375
5.766577035	95.7537
5.760169579	95.75
5.753776347	95.7166
5.747397291	95.79
5.741032364	95.8564
5.734681519	95.8896
5.728344709	95.9434
5.722021888	95.9873
5.715713009	96.0478
5.709421287	96.0781
5.703140149	96.0349
5.696872816	96.0427
5.690619242	96.0576
5.684379382	96.0671
5.678153192	96.1238
5.671940626	96.1345
5.66574164	96.0869
5.659556189	96.1091
5.653384229	96.1211
5.647225716	96.1052
5.641080605	96.1221
5.634948854	96.0918
5.628830419	96.0486
5.622725256	96.0547
5.616633323	96.0291
5.610557723	95.9812
5.604492113	95.9617
5.598439603	95.9509
5.592400152	95.8916
5.586373717	95.875
5.580360257	95.8936
5.574359729	95.875
5.568372092	95.8115
5.562397304	95.7832
5.556435324	95.7869
5.550486112	95.7771
5.544549625	95.7341
5.538625823	95.7021
5.532714665	95.7012
5.526816112	95.7168
5.520930122	95.7119
5.515056656	95.6877
5.509195674	95.679
5.503347136	95.7009
5.497511002	95.7166
5.491687233	95.7488
5.48587579	95.7617
5.480076633	95.8005
5.474289725	95.8301
5.468518015	95.8623
5.462755479	95.8877
5.457005076	95.8982
5.451266765	95.9236
5.445540511	95.9788
5.439826274	96.0039
5.434124016	95.999
5.428433701	96.0251
5.422755291	96.0947
5.417088748	96.0859
5.411434035	96.0574
5.405791116	96.0749
5.400159953	96.0593
5.394540509	96.0105
5.388932749	95.9734
5.383336635	95.9773
5.377752132	95.988
5.372179203	96.0115
5.366617813	96.0222
5.361067925	96.0618
5.355529504	96.1042
5.350002515	96.1455
5.344486921	96.1699
5.338982689	96.1643
5.333492627	96.1699
5.328011006	96.1941
5.32254064	96.2087
5.317081497	96.2458
5.31163354	96.3152
5.306196736	96.3689
5.30077105	96.3799
5.295356449	96.3789
5.289952898	96.3611
5.284560364	96.3701
5.279178813	96.3945
5.273808212	96.4246
5.268448526	96.4724
5.263099724	96.5342
5.257761771	96.5945
5.252434635	96.6133
5.247118283	96.6355
5.241812682	96.6609
5.236517799	96.7195
5.231233603	96.7722
5.225960061	96.7783
5.220697141	96.7627
5.21544481	96.8123
5.210203036	96.8728
5.204974498	96.9021
5.19975374	96.8965
5.194543444	96.908
5.189343579	96.9216
5.184154115	96.9294
5.178975019	96.9785
5.173806261	97.0234
5.168647809	97.0427
5.163499634	97.0635
5.158361704	97.0615
5.153233989	97.0544
5.148116459	97.0593
5.143009082	97.0605
5.137911829	97.083
5.13282467	97.0937
5.127747575	97.085
5.122680514	97.1091
5.117623458	97.1374
5.112576376	97.1462
5.107539239	97.1553
5.102512018	97.1709
5.097494683	97.179
5.092487206	97.156
5.087489558	97.1384
5.082504292	97.1472
5.077526209	97.1824
5.072557868	97.2078
5.06759924	97.2019
5.062650297	97.1921
5.057711011	97.2097
5.052781354	97.2273
5.047861297	97.2178
5.042950812	97.2244
5.038049872	97.2283
5.033158448	97.2227
5.028276513	97.2234
5.023404039	97.2234
5.018541	97.2383
5.013687367	97.2312
5.008843113	97.2617
5.004010715	97.2956
4.999185133	97.3279
4.994368849	97.3342
4.989561837	97.3318
4.984764069	97.3328
4.979975518	97.3328
4.97519616	97.3298
4.970425966	97.3245
4.96566491	97.3245
4.960912967	97.3538
4.95617011	97.3572
4.951436313	97.3518
4.94671155	97.3552
4.941995795	97.3572
4.937289023	97.3103
4.932591209	97.283
4.927902325	97.2932
4.923222347	97.3323
4.918551251	97.3557
4.913889009	97.3533
4.909235598	97.4006
4.904590991	97.4363
4.899955165	97.4368
4.895328095	97.4221
4.890712146	97.4109
4.886102507	97.4109
4.88150155	97.4148
4.876909249	97.4143
4.87232558	97.4329
4.86775052	97.4407
4.863184043	97.4143
4.858626126	97.3904
4.854076745	97.3874
4.849535875	97.3967
4.845003493	97.4324
4.840479575	97.4451
4.835964098	97.4729
4.831457037	97.4895
4.826958369	97.5144
4.822468072	97.5168
4.81798612	97.5315
4.813512492	97.5354
4.809047164	97.5403
4.804590113	97.5369
4.800141316	97.5334
4.79570075	97.5286
4.791268392	97.5334
4.78684422	97.5261
4.782430498	97.511
4.778022625	97.51
4.773622869	97.5203
4.769231209	97.5359
4.764847623	97.5359
4.760472086	97.5134
4.756104579	97.5017
4.751745078	97.4875
4.747393562	97.5076
4.743050009	97.4954
4.738714396	97.4685
4.734386703	97.4866
4.730066907	97.4939
4.725754987	97.5066
4.721450921	97.4988
4.717154688	97.4807
4.712866266	97.4509
4.708585635	97.428
4.704312773	97.4397
4.700047658	97.4358
4.695790271	97.4543
4.691540589	97.4851
4.687298593	97.5066
4.68306426	97.5164
4.67883976	97.5408
4.67462069	97.5066
4.670409221	97.4695
4.666205334	97.4773
4.662009009	97.4929
4.657820224	97.488
4.65363896	97.5056
4.649465195	97.5085
4.645298911	97.5124
4.641140087	97.5051
4.636988702	97.5027
4.632844738	97.5046
4.628708174	97.533
4.62457899	97.5613
4.620457167	97.5647
4.616342684	97.5706
4.612235523	97.5842
4.608135664	97.6008
4.604043086	97.6189
4.599957772	97.6111
4.595879702	97.6033
4.591808856	97.5945
4.587745215	97.571
4.58368876	97.5652
4.57964157	97.5671
4.575599426	97.5842
4.571564412	97.5828
4.567536508	97.5759
4.563515696	97.5593
4.559501956	97.6091
4.555495271	97.6155
4.551495621	97.6208
4.547502989	97.6101
4.543517355	97.637
4.539538701	97.6155
4.535567009	97.6116
4.531602261	97.5964
4.527644439	97.5857
4.523693523	97.5627
4.519749497	97.552
4.515814382	97.5544
4.511884077	97.5559
4.507960608	97.5452
4.504043956	97.5393
4.500134104	97.5471
4.496231034	97.5613
4.492334729	97.5837
4.488445171	97.5779
4.484562343	97.5867
4.480686226	97.616
4.476816804	97.6018
4.47295406	97.5666
4.469097975	97.572
4.465248534	97.5378
4.461405718	97.4968
4.45756951	97.4963
4.453739894	97.5037
4.449916853	97.4709
4.44610037	97.49
4.442290427	97.5222
4.438487009	97.5334
4.434690097	97.5496
4.430899676	97.5593
4.42711573	97.5417
4.423340197	97.5427
4.419569145	97.5198
4.415804518	97.5139
4.412046298	97.5012
4.408294471	97.5173
4.404549018	97.5525
4.400809925	97.5623
4.397077175	97.5422
4.393350752	97.5496
4.389630639	97.5632
4.385916821	97.5398
4.382209282	97.5539
4.378508006	97.5691
4.374812977	97.5339
4.371124179	97.53
4.367441596	97.5691
4.363765214	97.6072
4.360095015	97.6335
4.356430985	97.6267
4.352773108	97.6052
4.349121369	97.5725
4.345475751	97.5764
4.341836241	97.5994
4.338202821	97.5627
4.334577357	97.5593
4.330956072	97.5608
4.327340832	97.5466
4.323731623	97.5144
4.320128429	97.4788
4.316531235	97.425
4.312940028	97.4241
4.30935479	97.4343
4.305775509	97.4685
4.302202168	97.5046
4.298634754	97.5471
4.29507325	97.5867
4.291517644	97.5945
4.287967919	97.5925
4.284424062	97.5583
4.280886058	97.5505
4.277353892	97.5315
4.27382755	97.5471
4.270307018	97.5725
4.266792281	97.5647
4.263283325	97.5466
4.259780136	97.5603
4.256282699	97.5525
4.252791	97.5593
4.249306832	97.5334
4.245826565	97.5378
4.242351994	97.5276
4.238883105	97.529
4.235419885	97.5388
4.231962319	97.5271
4.228510393	97.5588
4.225064094	97.5671
4.221623408	97.5579
4.218188322	97.532
4.214758821	97.5271
4.211334892	97.5046
4.207916522	97.5061
4.204503696	97.5002
4.201096402	97.553
4.197694626	97.5764
4.194300114	97.574
4.190909331	97.5476
4.187524026	97.5295
4.184144186	97.5554
4.180769797	97.5525
4.177400846	97.5535
4.174037321	97.5369
4.170679208	97.5183
4.167326493	97.5168
4.163979165	97.5159
4.16063721	97.5017
4.157300615	97.5207
4.153969367	97.5354
4.150643454	97.5242
4.147322862	97.4998
4.144007579	97.5154
4.140697592	97.5203
4.137392888	97.5085
4.134093455	97.4812
4.130799281	97.4602
4.127510352	97.4597
4.124226656	97.4827
4.120948181	97.4934
4.117674914	97.4924
4.114408535	97.5085
4.111145645	97.5261
4.107887925	97.5168
4.104635365	97.4919
4.101387951	97.5007
4.098145671	97.4802
4.094908514	97.4592
4.091676466	97.4333
4.088449517	97.4421
4.085227653	97.4221
4.082010864	97.449
4.078799136	97.4436
4.075592459	97.4998
4.072390819	97.5251
4.069194206	97.5354
4.066002607	97.5295
4.062816011	97.5339
4.059634406	97.5056
4.056457779	97.5046
4.053286121	97.5393
4.050119418	97.5393
4.046957659	97.5178
4.043800833	97.5671
4.040648928	97.5974
4.037503563	97.5784
4.034361463	97.5544
4.031224251	97.5232
4.028091913	97.4968
4.024964439	97.4456
4.021841819	97.5027
4.018724039	97.5496
4.01561109	97.5574
4.012502959	97.5452
4.009399637	97.5173
4.00630111	97.4646
4.00320737	97.4373
4.000118404	97.4187
3.997034201	97.4089
3.99395475	97.4353
3.990880041	97.4705
3.987810062	97.5027
3.984744803	97.5115
3.981684252	97.5251
3.9786284	97.5178
3.975577234	97.5232
3.972530744	97.531
3.96948892	97.5276
3.966451751	97.4978
3.963420797	97.4963
3.960392903	97.4753
3.957369631	97.4675
3.954350972	97.4431
3.951336915	97.449
3.948327449	97.4744
3.945322564	97.53
3.942322249	97.5491
3.939326493	97.5515
3.936335288	97.5808
3.933348621	97.5662
3.930366483	97.5823
3.927388864	97.6052
3.924415753	97.5915
3.921447139	97.5569
3.918483014	97.5295
3.915523366	97.5388
3.912568186	97.5251
3.909617463	97.5232
3.906671188	97.5398
3.90372935	97.5295
3.900791939	97.5261
3.897858945	97.5164
3.894930359	97.5315
3.892007684	97.5261
3.889087881	97.4963
3.886172454	97.4871
3.883261396	97.5027
3.880354695	97.4792
3.877452343	97.4831
3.874554329	97.5061
3.871660644	97.4534
3.868771278	97.4495
3.865886222	97.4128
3.863005465	97.4509
3.860128998	97.4416
3.857256812	97.4617
3.854388896	97.4841
3.851525243	97.4685
3.848665841	97.4695
3.845812161	97.4729
3.842961232	97.4709
3.840114528	97.4685
3.837272037	97.4861
3.834433752	97.4495
3.831599662	97.4675
3.828769759	97.4963
3.825944033	97.4656
3.823122474	97.4338
3.820305074	97.4324
3.817491824	97.4314
3.814682714	97.4353
3.811877735	97.4158
3.809076878	97.4265
3.806280134	97.4612
3.803487494	97.4475
3.800698949	97.4397
3.797914489	97.4001
3.795134107	97.3581
3.792357792	97.3435
3.789585537	97.3166
3.786817332	97.3108
3.784053167	97.3142
3.781293036	97.3367
3.778538356	97.3142
3.77578626	97.3035
3.773038171	97.3064
3.770294079	97.3103
3.767553976	97.3166
3.764817852	97.3186
3.7620857	97.3245
3.759357511	97.3025
3.756633275	97.2869
3.753912985	97.2664
3.751196632	97.2673
3.748484207	97.2346
3.745775701	97.2288
3.743071107	97.1863
3.740370416	97.1404
3.73767362	97.1023
3.734980709	97.1238
3.732291676	97.1453
3.729606512	97.1609
3.726925208	97.1526
3.724247758	97.1155
3.721574151	97.0896
3.718904381	97.0764
3.716238438	97.0193
3.713577694	97.0095
3.71091938	97.0217
3.708264869	97.0144
3.705614154	96.9978
3.702967225	96.9983
3.700324074	97.0105
3.697684695	97.0124
3.695049078	97.0198
3.692417215	97.0139
3.689789099	97.0159
3.687164722	97.0124
3.684544075	97.0124
3.68192715	96.9788
3.67931394	96.9685
3.676704437	96.949
3.674098633	96.9226
3.67149652	96.9089
3.66889809	96.905
3.666303336	96.8523
3.663712249	96.8064
3.661124822	96.7991
3.658541047	96.803
3.655960916	96.7771
3.653384422	96.7859
3.65081289	96.779
3.648243644	96.7947
3.645678012	96.7737
3.643115986	96.7478
3.640557559	96.7131
3.638002722	96.7058
3.635451469	96.6936
3.632903791	96.6394
3.630359682	96.6013
3.627819133	96.6091
3.625282138	96.6155
3.622748688	96.6272
3.620218777	96.6199
3.617692397	96.6096
3.615169541	96.5784
3.6126502	96.5784
3.610135673	96.5447
3.607623341	96.5242
3.605114504	96.5315
3.602609154	96.5217
3.600107283	96.4861
3.597608885	96.4553
3.595113953	96.4197
3.592622478	96.4187
3.590134454	96.4202
3.587649874	96.4167
3.585168731	96.4041
3.582691017	96.3831
3.580216725	96.406
3.577745848	96.3904
3.57527838	96.3542
3.572814313	96.3298
3.57035364	96.3005
3.567896354	96.2351
3.565442448	96.2214
3.562991916	96.2312
3.560544749	96.2078
3.558100942	96.178
3.555660487	96.1453
3.553223378	96.092
3.550790868	96.0535
3.548360427	96.0627
3.545933311	95.988
3.543509513	95.9607
3.541089027	95.9475
3.538671844	95.9333
3.53625796	95.9207
3.533847367	95.8811
3.531440058	95.8455
3.529036026	95.8088
3.526635266	95.8093
3.524237769	95.7751
3.52184353	95.739
3.519452542	95.678
3.517064798	95.6082
3.514680292	95.5291
3.512299017	95.4509
3.509920967	95.3381
3.507546135	95.1917
3.505174514	95.1306
3.502806098	95.0862
3.500440881	95.094
3.498078855	95.1209
3.495720015	95.1677
3.493365575	95.1716
3.491013085	95.1995
3.488663762	95.2087
3.486317598	95.1838
3.483974588	95.1819
3.481634725	95.156
3.479298003	95.156
3.476964415	95.1101
3.474633956	95.0574
3.472306619	95.0588
3.469982397	95.053
3.467661284	95.0476
3.465343275	95.0374
3.463028363	95.0173
3.460716541	94.9822
3.458407804	94.8914
3.456102146	94.8318
3.453799559	94.7878
3.451500039	94.74
3.449203579	94.6951
3.446910172	94.6624
3.444619814	94.6116
3.442332497	94.5408
3.440048216	94.5066
3.437768146	94.45
3.435489916	94.3538
3.433214704	94.2673
3.430942504	94.1545
3.428673309	94.0564
3.426407114	93.9314
3.424143913	93.7947
3.421883699	93.6843
3.419626467	93.6467
3.417372212	93.6082
3.415120926	93.6018
3.412872605	93.6472
3.410627242	93.6814
3.408384831	93.6565
3.406145367	93.658
3.403908845	93.6785
3.401675257	93.697
3.399444599	93.7341
3.397216864	93.8103
3.394992047	93.8992
3.392770143	93.9456
3.390551144	93.9241
3.388335047	93.8401
3.386121844	93.7742
3.383912676	93.7327
3.381705245	93.7097
3.379500692	93.7131
3.377299012	93.7073
3.375100198	93.7341
3.372904246	93.7322
3.370711149	93.7166
3.368520903	93.7131
3.366333501	93.6936
3.364148938	93.7283
3.361967208	93.7068
3.359788306	93.6912
3.357612227	93.6213
3.355438965	93.5623
3.353268515	93.4319
3.35110087	93.3811
3.348937148	93.3181
3.346775098	93.3259
3.344615837	93.3103
3.342459362	93.3342
3.340305665	93.2991
3.338154741	93.2957
3.336006587	93.3167
3.333861195	93.2854
3.33171856	93.2517
3.329578678	93.1975
3.327441544	93.1892
3.32530715	93.1155
3.323175494	93.0662
3.321046568	93.0081
3.318920368	92.9529
3.31679689	92.8943
3.314676126	92.9319
3.312558073	92.9392
3.310442725	92.9128
3.308330077	92.8923
3.306220124	92.8655
3.304112861	92.7717
3.302008281	92.7385
3.299906382	92.6912
3.297808244	92.6213
3.295711686	92.5569
3.293617792	92.5413
3.291526557	92.4646
3.289437976	92.4412
3.287352045	92.4119
3.285268756	92.3474
3.283188107	92.2947
3.281110091	92.2966
3.279034705	92.3259
3.276961942	92.2771
3.274891798	92.2546
3.272824267	92.197
3.270759346	92.1199
3.268697029	92.0281
3.26663731	91.9456
3.264580186	91.8748
3.262525652	91.7986
3.260473701	91.7752
3.25842433	91.781
3.256377534	91.7776
3.254333308	91.7503
3.252291646	91.7053
3.250252545	91.6506
3.248217054	91.5818
3.246183057	91.4846
3.244151606	91.4182
3.242122696	91.3381
3.240096322	91.242
3.238072479	91.1638
3.236051163	91.137
3.234032369	91.0994
3.232016093	90.9885
3.230002329	90.8826
3.227991073	90.8167
3.22598232	90.7249
3.223976065	90.6638
3.221972305	90.6091
3.219971033	90.5642
3.217972246	90.5252
3.215975939	90.4666
3.213982108	90.4006
3.211990747	90.3381
3.210001852	90.2673
3.208015419	90.1756
3.206031443	90.1018
3.204049919	90.0569
3.202070843	89.9964
3.200095235	89.9085
3.19812104	89.8679
3.196149279	89.8479
3.194179949	89.7639
3.192213043	89.6931
3.190248559	89.6463
3.18828649	89.5818
3.186326834	89.5095
3.184369586	89.4143
3.18241474	89.3753
3.180462293	89.3465
3.17851224	89.3543
3.176564577	89.3269
3.1746193	89.2703
3.172676403	89.2068
3.170735883	89.1599
3.168797736	89.0486
3.166861956	88.9226
3.164928541	88.8591
3.162997484	88.7644
3.161068783	88.6843
3.159142432	88.6453
3.157218427	88.617
3.155296765	88.5564
3.153378435	88.4959
3.151461443	88.4422
3.14954678	88.4109
3.147634443	88.2927
3.145724426	88.241
3.143816726	88.117
3.141911338	88.0496
3.140008258	88.0759
3.138107483	88.0486
3.136209007	88.0008
3.134312827	87.9841
3.132418938	87.9207
3.130527337	87.7937
3.128638019	87.7322
3.126750981	87.7478
3.124866217	87.7342
3.122984699	87.6297
3.121104471	87.5925
3.119226507	87.534
3.1173508	87.4402
3.115477349	87.3943
3.113606148	87.3875
3.111737193	87.3142
3.10987048	87.2312
3.108006006	87.2107
3.106143766	87.1297
3.104283756	87.0398
3.102425973	86.9842
3.100570412	86.95
3.098717069	86.8679
3.096865941	86.8513
3.095017023	86.8562
3.093170311	86.7879
3.091325802	86.7283
3.089483491	86.6492
3.087643375	86.5877
3.085805449	86.5427
3.08396971	86.5447
3.082136155	86.5652
3.080304778	86.5388
3.078476524	86.4978
3.076649492	86.4021
3.074824627	86.2703
3.073001926	86.2
3.071181385	86.1677
3.069363	86.1502
3.067546766	86.1502
3.065732681	86.1472
3.06392074	86.0799
3.06211094	85.9978
3.060303276	85.9969
3.058497745	85.9656
3.056694344	85.8631
3.054893068	85.8494
3.053093914	85.8064
3.051296877	85.7556
3.049501955	85.7283
3.047709144	85.6677
3.045918439	85.5867
3.044129837	85.5203
3.042343335	85.4978
3.040558928	85.4627
3.038776613	85.3885
3.036996386	85.3308
3.035219166	85.2976
3.033443104	85.2488
3.031669119	85.2176
3.029897208	85.2752
3.028127367	85.2322
3.026359592	85.2117
3.02459388	85.1678
3.022830228	85.2068
3.021068631	85.1277
3.019309085	85.0359
3.017551589	85.0252
3.015796137	84.9148
3.014042726	84.8299
3.012291354	84.8054
3.010542015	84.6892
3.008794707	84.5642
3.007049426	84.4695
3.005306169	84.4265
3.003564931	84.4119
3.00182571	84.3387
3.000088503	84.2703
2.998353304	84.2742
2.996620112	84.2117
2.994888923	84.2283
2.993160628	84.1824
2.991433432	84.1365
2.989708228	84.1101
2.987985013	84.0935
2.986263784	84.0818
2.984544536	84.1306
2.982827267	84.1072
2.981111973	84.076
2.97939865	84.0594
2.977687296	84.0418
2.975977906	84.0369
2.974270478	83.989
2.972565009	83.9959
2.970861493	84.0359
2.96915993	84.0721
2.967460314	84.0945
2.965763522	84.1541
2.964067792	84.1756
2.962373999	84.1638
2.960682141	84.1619
2.958992215	84.1375
2.957304216	84.1443
2.955618142	84.2205
2.95393399	84.2127
2.952251756	84.2039
2.950571437	84.2537
2.94889303	84.3015
2.947216531	84.3318
2.945541937	84.3435
2.943869245	84.3289
2.942198452	84.2937
2.940529554	84.2469
2.938862549	84.2976
2.937197432	84.3367
2.935534201	84.2381
2.933872853	84.2703
2.932213384	84.3455
2.930555792	84.322
2.928900072	84.3025
2.927246222	84.3201
2.925595095	84.2928
2.923944975	84.3015
2.922296715	84.3377
2.920650312	84.3748
2.919005763	84.3914
2.917363066	84.4217
2.915722216	84.4773
2.91408321	84.4588
2.912446047	84.3924
2.910810722	84.408
2.909177232	84.4539
2.907545575	84.4217
2.905915747	84.4099
2.904287745	84.4392
2.902661566	84.4627
2.901037208	84.5554
2.899414666	84.6092
2.897793938	84.5779
2.896175022	84.615
2.894557913	84.6287
2.892942609	84.6072
2.891329106	84.6219
2.889717403	84.6385
2.888107495	84.6961
2.886500214	84.6961
2.884893888	84.657
2.883289349	84.6883
2.881686594	84.7127
2.880085619	84.7361
2.878486423	84.7195
2.876889001	84.7586
2.875293352	84.864
2.873699471	84.8953
2.872107357	84.9099
2.870517006	84.8357
2.868928415	84.8064
2.867341582	84.8728
2.865756502	84.9158
2.864173175	85.0291
2.862591596	85.1287
2.861011762	85.2195
2.859433672	85.2556
2.857857321	85.2986
2.856282708	85.3592
2.854709829	85.3943
2.853138681	85.5359
2.851569261	85.6521
2.850001568	85.7498
2.848436408	85.8484
2.846872156	85.9461
2.845309621	86.0525
2.8437488	86.1648
2.842189691	86.1717
2.840632291	86.2849
2.839076596	86.365
2.837522604	86.4353
2.835970313	86.4568
2.834419719	86.5115
2.83287082	86.6101
2.831323613	86.7459
2.829778094	86.8513
2.828234263	86.9461
2.826692114	87.0115
2.825151647	87.0896
2.823612858	87.1609
2.822075744	87.2273
2.820540303	87.3474
2.819006531	87.408
2.817474427	87.4812
2.815943987	87.6492
2.81441521	87.7381
2.812888091	87.8103
2.811363418	87.8845
2.809839609	87.9529
2.80831745	87.949
2.806796939	87.908
2.805278075	87.9295
2.803760853	88.0193
2.802245271	88.033
2.800731327	88.0789
2.799219018	88.1541
2.797708341	88.242
2.796199294	88.3455
2.794691874	88.4216
2.793186078	88.4646
2.791681905	88.5047
2.79017935	88.5799
2.788678412	88.6756
2.787179865	88.7156
2.785682151	88.7693
2.784186046	88.825
2.782691547	88.9256
2.781198652	89.0193
2.779707358	89.0672
2.778217662	89.0486
2.776729562	89.1013
2.775243056	89.1736
2.77375814	89.2273
2.772274812	89.2927
2.77079307	89.4382
2.769312911	89.5623
2.767834333	89.6443
2.766357333	89.6912
2.764881908	89.7673
2.763408056	89.9031
2.761935774	90.0007
2.760465061	90.1326
2.758995913	90.1931
2.757528328	90.2185
2.756062304	90.0896
2.754597837	89.8132
2.753134926	89.3172
2.751674325	88.8006
2.750214517	88.2927
2.748756257	87.6795
2.747299542	86.8142
2.74584437	85.4304
2.74439074	83.0779
2.742938647	79.8523
2.741488091	76.117
2.740039067	73.5272
2.738591575	74.8885
2.737145611	79.7107
2.735701174	85.0935
2.73425826	89.3025
2.732816867	91.906
2.731376994	93.2029
2.729938636	93.5779
2.728501793	93.615
2.727066462	93.6179
2.72563264	93.7498
2.724200325	93.9607
2.722769514	94.156
2.721340206	94.322
2.719912397	94.5095
2.718486086	94.5134
2.717062008	94.5291
2.715638684	94.6492
2.714216851	94.8044
2.712796505	94.9568
2.711377646	95.1765
2.709960269	95.3123
2.708544374	95.2927
2.707129958	95.3123
2.705717018	95.365
2.704305552	95.5398
2.702895558	95.6492
2.701487034	95.7263
2.700079976	95.8132
2.698674384	95.8874
2.697270255	95.8279
2.695867585	95.8884
2.694466374	95.9148
2.693066619	95.9226
2.691668318	95.9138
2.690271467	95.9412
2.688876066	95.9646
2.687482111	95.9783
2.686089602	96.0427
2.684698534	96.071
2.683309626	96.0749
2.681921436	96.0662
2.680534681	96.1677
2.679149359	96.2576
2.677765469	96.2126
2.676383008	96.2576
2.675001973	96.2634
2.673622363	96.2976
2.672244175	96.2517
2.670867407	96.3591
2.669492057	96.2976
2.668118123	96.1208
2.666745602	96.0935
2.665374493	96.1804
2.664004793	96.1609
2.6626365	96.0291
2.66127032	96.0583
2.659904834	96.0945
2.658540748	96.114
2.657178061	96.0544
2.65581677	96.0671
2.654456873	96.0476
2.653098368	95.9919
2.651741253	96.0828
2.650385525	96.0818
2.649031183	96.0583
2.647678224	96.0857
2.646326647	96.1404
2.644976449	96.1091
2.643627628	96.1482
2.642280182	96.0749
2.640934109	95.9968
2.639589407	96.074
2.638246073	96.1873
2.636904106	96.1609
2.635563503	96.1374
2.634224263	96.071
2.632886383	96.0046
2.631549862	95.9744
2.630214697	96.0779
2.628881577	96.0632
2.627549117	96.0906
2.626218007	96.2507
2.624888245	96.1755
2.62355983	96.1101
2.622232758	96.0007
2.620907028	96.0437
2.619582638	96.1218
2.618259585	95.9773
2.616937869	95.9294
2.615617486	95.9499
2.614298435	95.9031
2.612980713	95.9119
2.61166432	95.9568
2.610349252	95.9968
2.609035507	96.0554
2.607723085	95.9998
2.606411982	95.9255
2.605102197	95.9607
2.603793727	95.9382
2.602486572	95.8943
2.601180728	95.9705
2.599876194	96.0505
2.598572968	96.0632
2.597271722	96.071
2.595971105	96.1697
2.59467179	96.2419
2.593373774	96.1365
2.592077057	96.0437
2.590781636	96.0749
2.589487509	96.114
2.588194675	96.1296
2.58690313	96.1531
2.585612874	96.1013
2.584323905	96.0906
2.58303622	96.113
2.581749817	96.0994
2.580464695	96.1296
2.579180852	96.0359
2.577898286	95.9929
2.576616995	95.9773
2.575336976	95.9802
2.574058229	96.0017
2.572780751	95.9968
2.571504541	95.9578
2.570229596	96.031
2.568955915	95.9412
2.567683495	95.9138
2.566412994	95.8533
2.565143091	95.8044
2.563874445	95.8162
2.562607053	95.8865
2.561340913	95.947
2.560076024	95.8279
2.558812384	95.8064
2.55754999	95.7419
2.556288841	95.6521
2.555028936	95.6501
2.553770272	95.656
2.552512847	95.6267
2.55125666	95.6345
2.550001709	95.5857
2.548747991	95.613
2.547495506	95.6423
2.546244252	95.7185
2.544994225	95.6755
2.543745426	95.6716
2.542497852	95.5955
2.5412515	95.6462
2.54000637	95.6326
2.53876246	95.6423
2.537519767	95.6794
2.536278934	95.7224
2.535038671	95.7693
2.53379962	95.7419
2.53256178	95.7166
2.531325149	95.6814
2.530089725	95.74
2.528855506	95.7888
2.52762249	95.783
2.526390677	95.6931
2.525160064	95.5798
2.523930648	95.6052
2.52270243	95.5505
2.521475406	95.5115
2.520249575	95.49
2.519024936	95.4919
2.517801486	95.447
2.516579857	95.5271
2.515358781	95.6365
2.514138889	95.5955
2.512920179	95.5994
2.511702651	95.5955
2.510486301	95.6287
2.50927113	95.6619
2.508057134	95.5876
2.506844312	95.6208
2.505632662	95.7029
2.504422183	95.7205
2.503212874	95.6794
2.502004731	95.6443
2.500797754	95.5818
2.499591942	95.572
2.498387291	95.5818
2.497183801	95.5349
2.49598147	95.5388
2.494780296	95.5076
2.493580278	95.5857
2.492381413	95.5232
2.491183701	95.4919
2.489987139	95.5017
2.488791726	95.5505
2.48759808	95.5251
2.486404959	95.7068
2.485212983	95.6951
2.484022149	95.658
2.482832455	95.6052
2.4816439	95.7224
2.480456483	95.6873
2.479270202	95.6248
2.478085055	95.6697
2.47690104	95.6169
2.475718156	95.6814
2.474536402	95.6912
2.473355775	95.5486
2.472176274	95.5095
2.470997898	95.5349
2.469820644	95.4392
2.468644512	95.4138
2.467469499	95.4138
2.466295604	95.3201
2.465122826	95.2107
2.463951163	95.1209
2.462780612	95.1326
2.461611174	95.2966
2.460442845	95.3298
2.45927623	95.4568
2.458110116	95.5173
2.456945108	95.488
2.455781204	95.533
2.454618401	95.5154
2.4534567	95.4138
2.452296097	95.4568
2.451136592	95.6345
2.449978183	95.5486
2.448820868	95.4802
2.447664646	95.4314
2.446509516	95.4255
2.445355475	95.3396
2.444202523	95.24
2.443050657	95.1404
2.441899876	95.2087
2.440750179	95.2517
2.439601564	95.3767
2.43845403	95.4412
2.437307575	95.3943
2.436162197	95.4685
2.435017895	95.5154
2.433874668	95.4919
2.432732513	95.488
2.431592022	95.5251
2.430452008	95.2908
2.429313063	95.2029
2.428175185	95.2224
2.427038372	95.2029
2.425902624	95.3513
2.424767938	95.5623
2.423634312	95.7419
2.422501747	95.6658
2.421370239	95.5251
2.420239788	95.3552
2.419110392	95.2517
2.417982049	95.2966
2.416854758	95.3572
2.415728518	95.4626
2.414603328	95.4939
2.413479185	95.4294
2.412356088	95.4021
2.411234036	95.2498
2.410113027	95.1834
2.40899306	95.2771
2.407874134	95.322
2.406756246	95.3376
2.405639396	95.4021
2.40452416	95.3982
2.40340938	95.3904
2.402295634	95.4705
2.401182919	95.4958
2.400071234	95.3611
2.398960578	95.3435
2.39785095	95.2751
2.396742348	95.2224
2.39563477	95.2068
2.394528216	95.2068
2.393422683	95.1951
2.392318171	95.156
2.391214677	95.2048
2.390112201	95.1365
2.389010742	95.0876
2.387910297	95.2361
2.386811435	95.2751
2.385713014	95.3064
2.384615605	95.283
2.383519204	95.2302
2.382423811	95.2654
2.381329425	95.2888
2.380236043	95.3455
2.379143665	95.3298
2.37805229	95.4451
2.376961915	95.3162
2.375872539	95.1326
2.374784162	94.9158
2.373696781	94.697
2.372610396	94.8084
2.371525004	94.8533
2.370440606	94.8376
2.369357198	94.9959
2.368274781	95.3298
2.367193351	95.4861
2.366112909	95.6267
2.365033453	95.6248
2.363954982	95.5623
2.362877493	95.4255
2.361800987	95.2693
2.360726018	95.0388
2.35965147	94.8201
2.3585779	94.8689
2.357505307	95.0193
2.356433688	95.2654
2.355363044	95.3923
2.354293372	95.4919
2.353224671	95.533
2.35215694	95.4529
2.351090177	95.4412
2.350024382	95.4314
2.348959552	95.1169
2.347895687	94.9861
2.346832785	94.8787
2.345770845	94.8318
2.344709866	94.8611
2.343649846	94.9158
2.342590784	94.9158
2.341532678	95.0154
2.340475528	95.1267
2.339419333	95.158
2.33836409	95.0544
2.337309798	94.9919
2.336256457	95.033
2.335204611	95.0388
2.334153166	95.0818
2.333102667	95.1365
2.332053114	95.0662
2.331004504	95.1248
2.329956838	95.2458
2.328910112	95.3279
2.327864326	95.2751
2.32681948	95.2595
2.325775571	94.9373
2.324732598	94.8201
2.32369056	94.8123
2.322649456	94.8982
2.321609284	95.0017
2.320570043	95.1345
2.319531733	95.2263
2.318494351	95.3455
2.317457897	95.4333
2.316422369	95.2732
2.315387766	95.3142
2.314354087	95.2107
2.31332133	95.3064
2.312289495	95.2986
2.31125858	95.2927
2.310229117	95.3689
2.309200038	95.4607
2.308171875	95.4626
2.307144627	95.4294
2.306118293	95.4529
2.305092872	95.283
2.304068363	95.3357
2.303044763	95.3201
2.302022073	95.2224
2.301000291	95.2419
2.299979415	95.3826
2.298959445	95.449
2.297940379	95.3298
2.296922216	95.3435
2.295904955	95.1423
2.294888595	94.8611
2.29387366	94.8357
2.292859097	94.9314
2.291845431	95.2205
2.29083266	95.1951
2.289820785	95.1658
2.288809803	95.0623
2.287799713	94.8923
2.286790515	94.9021
2.285782206	94.9705
2.284774786	95.0271
2.283768254	95.0857
2.282762608	95.0857
2.281757848	95.0408
2.280753972	94.7185
2.279750978	94.7595
2.278748867	94.8748
2.277747636	95.0017
2.276747284	95.2615
2.275747811	95.4919
2.274749215	95.4529
2.273751494	95.2849
2.272754649	95.2068
2.271758677	95.1052
2.270763578	95.0486
2.269769866	95.0173
2.268776508	95.1189
2.267784019	95.1501
2.266792398	95.1658
2.265801644	95.1365
2.264811756	95.0193
2.263822732	95.0232
2.262834571	94.9158
2.261847273	94.9861
2.260860836	95.1248
2.259875259	95.2654
2.258890541	95.2498
2.257906681	95.2107
2.256923678	95.3611
2.25594153	95.4783
2.254960236	95.4705
2.253979796	95.5095
2.253000208	95.5251
2.252021471	95.4001
2.251043584	95.2185
2.250066546	95.2341
2.249090355	95.0544
2.248115012	95.0193
2.247140514	95.2048
2.246167365	95.1443
2.245194554	95.156
2.244222586	95.1423
2.243251458	95.2439
2.242281171	95.281
2.241311723	95.3435
2.240343113	95.408
2.23937534	95.3376
2.238408402	95.3279
2.237442299	95.2908
2.23647703	95.2263
2.235512593	95.2751
2.234548988	95.3982
2.233586213	95.4158
2.232624267	95.3123
2.231663149	95.0642
2.230702859	94.8845
2.229743394	94.9548
2.228784755	95.0388
2.22782694	94.9861
2.226869947	95.0798
2.225913777	95.113
2.224958427	95.0408
2.224003896	95.1267
2.223050679	94.9959
2.222097785	94.9626
2.221145707	95.2751
2.220194445	95.4529
2.219243997	95.2283
2.218294362	95.1658
2.21734554	95.1658
2.21639753	95.0564
2.215450329	95.1091
2.214503938	95.1716
2.213558355	95.2361
2.212613579	95.4548
2.211669609	95.5642
2.210726445	95.6013
2.209784084	95.5974
2.208842527	95.4958
2.207901771	95.3435
2.206961817	95.2517
2.206022662	95.2048
2.205084307	95.3123
2.204146749	95.3826
2.203209989	95.5798
2.202274024	95.5544
2.201338854	95.322
2.200404963	95.0564
2.199471379	94.9607
2.198538587	94.9861
2.197606587	94.9451
2.196675376	95.072
2.195744954	95.1345
2.194815319	95.2673
2.193886472	95.3064
2.192958411	95.281
2.192031134	95.2498
2.191104641	95.2126
2.190178931	95.2576
2.189254003	95.0232
2.188329856	95.0935
2.187406488	95.0955
2.1864839	95.0642
2.185562567	95.2205
2.184641533	95.3044
2.183721275	95.3904
2.182801792	95.4861
2.181883083	95.2595
2.180965147	95.2908
2.180047983	95.2595
2.17913159	95.2595
2.178215967	95.281
2.177301113	95.3669
2.176387028	95.3064
2.175473709	95.3201
2.174561157	95.2732
2.17364937	95.3123
2.172738348	95.3923
2.171828089	95.2439
2.170918592	95.281
2.170009856	95.2673
2.169101881	95.4236
2.168194666	95.5154
2.167288209	95.4548
2.166382509	95.4607
2.165477567	95.6658
2.16457338	95.5876
2.163670416	95.4763
2.162767737	95.699
2.161865811	95.6326
2.160964637	95.7224
2.160064214	95.6912
2.159164542	95.8787
2.158265618	95.8201
2.157367442	95.5583
2.156470014	95.3982
2.155573332	95.4998
2.154677395	95.7029
2.153782203	95.6794
2.152887754	95.7068
2.151994048	95.4412
2.151101084	95.238
2.150208861	95.1052
2.149317377	95.0935
2.148426632	94.9841
2.147536625	95.1443
2.146647355	95.3904
2.145758822	95.3513
2.144871024	95.1794
2.14398396	95.1873
2.143097629	95.0544
2.14221249	95.1873
2.141327623	95.4177
2.140443487	95.3669
2.139560081	95.3552
2.138677403	95.5583
2.137795454	95.6052
2.136914232	95.6521
2.136033736	95.5037
2.135153965	95.5623
2.134274919	95.5857
2.133396596	95.5896
2.132518995	95.5779
2.131642117	95.4099
2.130765959	95.4919
2.129890521	95.6404
2.129015803	95.699
2.128141802	95.5779
2.127268519	95.613
2.126395952	95.8591
2.125524101	95.7537
2.124652964	95.7029
2.123782542	95.6912
2.122912832	95.6248
2.122043834	95.699
2.121175997	95.5779
2.12030842	95.5896
2.119441553	95.4138
2.118575394	95.574
2.117709942	95.6326
2.116845198	95.6013
2.115981159	95.5193
2.115117826	95.4216
2.114255197	95.4529
2.113393271	95.7029
2.112532047	95.8318
2.111671525	95.8162
2.110811704	95.7654
2.109952583	95.613
2.109094161	95.3943
2.108236437	95.238
2.107379855	95.2185
2.106523524	95.363
2.105667889	95.4021
2.104812949	95.5935
2.103958703	95.8044
2.103105151	95.8435
2.10225229	95.8318
2.101400121	95.6326
2.100548642	95.8201
2.099697853	95.6873
2.098847754	95.5623
2.097998342	95.7888
2.097149617	95.9529
2.096301579	95.7966
2.095454226	95.4177
2.094607559	95.449
2.093761575	95.5662
2.092916274	95.7927
2.092071655	95.6443
2.091227718	95.8201
2.090384461	95.6755
2.089541885	95.7185
2.088699987	95.9529
2.087858767	95.9998
2.08701866	95.9763
2.086178794	95.656
2.085339604	95.4294
2.084501088	95.2966
2.083663247	95.3201
2.082826078	95.4333
2.081989583	95.5779
2.081153758	95.9568
2.080318605	96.0466
2.079484122	96.1951
