Name: Antigorite (Mg, Fe+2)3 Si2O5(OH)4 
Type:  Mineral  
Class:  Silicates
Subclass:  Phyllosilicates  (Sheet silicates) (Serpentine/Kaolin Group) 
Particle Size:  Fine (less than 2 Micrometers)
Sample No.:  antigorite.1
Owner:  JHU.
Wavelength Range:  IR
Origin:  Sample from Kalsertal, Tyrol, Austria, via the Smithsonian 
(sample no. NMNH B17958, borrowed from Jim Crowley, USGS).  
Description: The sample was a large green single crystal.  It appeared 
to be mostly pure antigorite under the microscope, but some (<3%) 
alteration or impurity was present, possibly chrysotile.



Measurement:  Transmission
First Column:  X
Second Column:  Y  
X Units:  Wavelength (micrometers)
Y Units:  Transmittance (percent)
First X Value:  25.0442
Last X Value:  4.4055
Number of X Values:  2287
Additional Information: antigo1a.txt

25.04420302	59.4608
24.9237955	58.7811
24.80454022	58.8163
24.68642074	58.9256
24.5694209	59.1092
24.45358465	59.3436
24.3387763	59.1795
24.22504094	59.2889
24.11236361	59.4100
24.00072962	59.4881
23.89012454	59.2030
23.78053421	58.6639
23.67194472	58.0428
23.56434244	56.6522
23.45771395	54.7381
23.35204611	52.4452
23.24732598	50.5096
23.14354087	48.1483
23.04067832	45.6815
22.93872607	43.4237
22.83767211	41.3456
22.7375046	39.8358
22.63821194	38.6601
22.53978272	37.3690
22.44220571	36.3300
22.3454699	35.5546
22.24956446	35.0468
22.15447875	34.9413
22.06020229	35.0644
21.96677306	35.4550
21.87408402	35.8690
21.7821739	36.6054
21.69103293	37.4999
21.60065148	38.6718
21.5110201	39.7382
21.42212949	40.9159
21.33397051	42.2147
21.24653416	43.3612
21.15981159	44.5018
21.0737941	45.8846
20.98847313	47.2518
20.90384024	48.5800
20.81988716	49.5760
20.73660571	50.4706
20.65398787	51.5565
20.57202575	52.5838
20.49071156	53.6092
20.41003766	54.5858
20.3299965	55.5018
20.25058069	56.1034
20.1717829	56.5487
20.09359597	57.2186
20.01601281	57.6014
19.93906621	57.9862
19.8626695	58.4256
19.78685599	58.8905
19.71161901	59.2899
19.63695203	59.8788
19.56284859	60.2967
19.48930232	60.7323
19.41630698	61.2547
19.34385639	61.7508
19.27194448	62.0194
19.20056526	62.1952
19.12971284	62.6522
19.05938141	62.8133
18.98956523	62.8368
18.92025868	62.8836
18.85145618	62.9100
18.78315226	62.7616
18.71534153	62.8602
18.64801865	62.7264
18.58117838	62.4510
18.51481556	62.1327
18.44892507	62.0077
18.38350191	61.8905
18.31854111	61.4774
18.25407111	61.0672
18.19002023	60.6815
18.12641726	60.3182
18.06325753	59.7987
18.00053642	59.4041
17.93824937	58.9120
17.8763919	58.5633
17.81495958	58.3280
17.75394803	58.2420
17.69335296	58.3241
17.63317011	58.7508
17.57339529	59.3719
17.51402436	60.1219
17.45505324	61.0799
17.39647791	61.9569
17.3382944	62.8162
17.28049878	63.4061
17.2230872	64.0565
17.16605584	64.5936
17.10940093	65.1131
17.05311876	65.4119
16.99720566	65.6883
16.94165801	65.8524
16.88647225	65.8944
16.83167317	65.8221
16.77720046	65.6414
16.72307919	65.3377
16.66930597	65.0291
16.61587747	64.4744
16.56279037	63.7703
16.51004141	63.0662
16.45762737	62.1844
16.40554507	61.4657
16.35379138	60.7313
16.30236319	60.0584
16.25125744	59.3260
16.20047111	58.7821
16.15000121	58.2791
16.0998448	57.9500
16.04999896	57.7508
16.00048641	57.7284
15.95125297	57.7420
15.90232158	57.8924
15.85368947	58.0702
15.80535391	58.1249
15.75731218	58.2264
15.70956162	58.2040
15.6620996	58.3329
15.61492349	58.4930
15.56803074	58.8153
15.52141878	59.1639
15.47508511	59.6698
15.42902725	60.2625
15.38324273	61.0057
15.33772913	61.7166
15.29248405	62.4412
15.24750513	63.3377
15.20279002	64.0750
15.1583364	64.9500
15.114142	65.6151
15.07020455	66.4539
15.02652181	67.2069
14.98309158	68.0467
14.93991168	68.8807
14.89700213	69.7274
14.85431629	70.3983
14.81187438	71.0604
14.76967431	71.7010
14.72771402	72.2557
14.68599147	72.8328
14.64450465	73.2889
14.60325156	73.9207
14.56223023	74.4734
14.52143873	75.0750
14.48087511	75.6004
14.44053748	76.1170
14.40042395	76.5691
14.36053266	76.9363
14.32086177	77.3367
14.28140946	77.5975
14.24217393	77.9510
14.20315338	78.2820
14.16434607	78.6111
14.12575025	78.6980
14.0873642	78.8807
14.0491862	79.0535
14.01121458	79.3465
13.97344765	79.5887
13.93590321	79.7889
13.89854065	80.0804
13.8613779	80.3304
13.82441336	80.4690
13.78764544	80.6697
13.75107258	80.8943
13.71469324	81.0061
13.67850587	81.1565
13.64250897	81.3787
13.60670103	81.4705
13.57108057	81.6521
13.53564612	81.7718
13.50039624	81.9124
13.46532947	82.1306
13.4304444	82.2810
13.39573962	82.4593
13.36121373	82.5745
13.32686536	82.6097
13.29269314	82.7014
13.25869572	82.8245
13.22487175	82.9490
13.19121992	83.0662
13.15773892	83.0960
13.12442745	83.1097
13.09130135	83.1853
13.05832501	83.2517
13.02551438	83.3826
12.99286821	83.3225
12.96038529	83.1936
12.92806437	83.2171
12.89590426	83.2820
12.86390376	83.2347
12.83206168	83.2815
12.80037684	83.3846
12.7688481	83.5935
12.73747429	83.7249
12.70625427	83.8577
12.67518693	84.0530
12.64427113	84.1736
12.61350579	84.3513
12.58290562	84.3299
12.55243781	84.3758
12.52211719	84.4353
12.4919427	84.5706
12.46191328	84.4866
12.43202789	84.5095
12.40228549	84.5740
12.37268507	84.5193
12.34322561	84.6228
12.31390609	84.4959
12.28472554	84.5237
12.25568296	84.5135
12.22677738	84.4768
12.19800782	84.3758
12.16937334	84.3069
12.14087298	84.2527
12.1125058	84.1468
12.08427087	83.9104
12.05616727	83.7928
12.02819409	83.6077
12.00035041	83.1975
11.97263534	82.9431
11.945048	82.8074
11.9175875	82.7625
11.8902671	82.5139
11.86305761	82.3660
11.83597236	82.1858
11.80901051	82.0330
11.78217122	81.8260
11.75545365	81.7224
11.72885698	81.4729
11.70238038	81.1717
11.67602305	80.9226
11.64978419	80.7615
11.62366299	80.6062
11.59765866	80.4021
11.57177043	80.4026
11.54599752	80.2991
11.52033916	80.2693
11.49479458	80.1370
11.46936304	80.0413
11.44404378	79.8753
11.41883606	79.7850
11.39373914	79.7342
11.3687523	79.6990
11.34387482	79.7405
11.31910597	79.6717
11.29444505	79.5628
11.26990406	79.3045
11.24545684	79.2000
11.22111545	78.9168
11.19687921	78.5935
11.17274743	78.1961
11.14871946	77.8689
11.12479461	77.4104
11.10097222	76.8904
11.07725165	76.3987
11.05363222	75.7640
11.03011331	75.1180
11.00669427	74.4241
10.98337447	73.8206
10.96015327	73.1248
10.93703005	72.5316
10.9140042	71.9280
10.89107509	71.4129
10.86824213	70.8245
10.8455047	70.0770
10.82286221	69.3421
10.80031407	68.6014
10.77785969	67.8519
10.75549848	66.9530
10.73322986	66.0213
10.71106474	64.9163
10.68897956	63.6922
10.66698525	62.3050
10.64508128	61.0018
10.62326708	59.4657
10.6015421	57.6605
10.5799058	55.9398
10.55835763	54.0780
10.53689705	52.2811
10.51552354	50.5448
10.49423657	48.7601
10.4730356	47.0214
10.45192012	45.4125
10.43088962	43.8593
10.40994358	42.3866
10.38908149	41.0180
10.36830285	39.7040
10.34760717	38.5233
10.32699394	37.3788
10.30646267	36.2948
10.28601287	35.2519
10.26564407	34.2367
10.24535578	33.2109
10.22514752	32.1737
10.20502924	31.2157
10.1849796	30.3949
10.16500858	29.7792
10.14511574	29.4106
10.12530059	29.2753
10.10556271	29.3544
10.08590162	29.5829
10.0663169	29.8705
10.04680808	30.2074
10.02737473	30.5966
10.00801642	31.0663
9.98873271	31.5195
9.969523168	32.0331
9.950387369	32.6513
9.931324888	33.3202
9.912335307	34.0522
9.893427994	34.8608
9.874582922	35.7035
9.855809507	36.5185
9.83710734	37.3036
9.818476015	38.1371
9.799915133	38.9423
9.781424293	39.7650
9.7630031	40.5766
9.744651161	41.4003
9.726368087	42.2221
9.70815349	43.0717
9.690006986	43.9227
9.671928196	44.7543
9.653916739	45.5487
9.635972241	46.2474
9.618094328	46.8475
9.600282632	47.3304
9.582536785	47.7426
9.564856422	48.0179
9.547241181	48.1952
9.529690704	48.2811
9.512204634	48.2445
9.494782617	48.1132
9.477424301	47.8715
9.460138288	47.6268
9.4429063	47.3221
9.425736975	47.0101
9.408629972	46.7675
9.391584952	46.6620
9.374601579	46.6449
9.35767952	46.7543
9.340818443	47.0106
9.324018018	47.3300
9.307277919	47.8143
9.290597822	48.4120
9.273977405	49.1039
9.257416348	49.8632
9.240914333	50.7411
9.224471046	51.7782
9.208086173	52.8924
9.191759404	54.2577
9.17549043	55.8377
9.159278945	57.5536
9.143124645	59.3895
9.127027227	61.3455
9.110986392	63.1756
9.095001842	64.9749
9.079073281	66.6859
9.06320863	68.2088
9.04739114	69.5545
9.031628764	70.7088
9.015921215	71.6878
9.000268208	72.4944
8.984669459	73.2732
8.969124685	73.9188
8.953633608	74.5691
8.93819595	75.1346
8.922811435	75.7464
8.907479789	76.3738
8.89220074	76.8699
8.876974017	77.3909
8.861799353	77.8455
8.846676481	78.3636
8.831605135	78.9339
8.816585054	79.4690
8.801615977	79.9427
8.786697643	80.4490
8.771829795	80.8875
8.757012178	81.2903
8.742244536	81.7288
8.727526619	82.2034
8.712858175	82.6111
8.69824652	82.9431
8.683676252	83.3699
8.669154714	83.7679
8.654681663	84.1824
8.640256858	84.5003
8.625880055	84.8474
8.611551018	85.1321
8.597269507	85.3606
8.583035287	85.6033
8.568848124	85.8699
8.554707784	86.0598
8.540614036	86.2542
8.52656665	86.4632
8.512565398	86.6487
8.498610052	86.8997
8.484700388	87.0828
8.470836182	87.3050
8.45701721	87.5232
8.443243252	87.7561
8.429514089	87.9317
8.415829502	88.0916
8.402189274	88.2549
8.388593191	88.4121
8.375041038	88.5564
8.361539594	88.6279
8.348074642	88.7442
8.334652987	88.8496
8.32127442	88.9756
8.307938734	89.1035
8.294645723	89.2888
8.281395183	89.4365
8.268186911	89.6297
8.255020704	89.8201
8.241896361	90.0342
8.228813685	90.2634
8.215772476	90.3982
8.202772537	90.5818
8.189813674	90.7412
8.176895691	90.9470
8.164018395	91.0457
8.151188239	91.1582
8.138391724	91.2722
8.125635323	91.3975
8.11291885	91.4219
8.100242116	91.4949
8.087604937	91.6289
8.075007126	91.6829
8.062448501	91.7488
8.049928879	91.7822
8.037448078	91.8821
8.025005918	91.9197
8.012602221	91.9727
8.000236807	92.0274
7.9879095	92.1170
7.975620124	92.2224
7.963368505	92.3447
7.951154468	92.4929
7.938977841	92.5928
7.926838452	92.6619
7.914736131	92.6475
7.902670708	92.6465
7.890642014	92.5899
7.878649883	92.5779
7.866694148	92.6062
7.854780812	92.6492
7.842897355	92.6787
7.831049799	92.7068
7.819237984	92.7488
7.807461747	92.7800
7.795720929	92.8164
7.784015369	92.8760
7.772344909	92.8965
7.760709391	92.9031
7.749108659	92.9385
7.737542556	92.9346
7.726010929	92.9402
7.714513623	92.9854
7.703050485	93.0081
7.691621363	92.9968
7.680226106	93.0098
7.668864563	93.0527
7.657536586	93.0847
7.646242025	93.0789
7.634980733	93.0759
7.623752563	93.1228
7.61255737	93.1670
7.601395008	93.1797
7.590265333	93.2190
7.579173946	93.2234
7.568109199	93.2051
7.557076711	93.2380
7.546076342	93.2566
7.535107952	93.2625
7.524171401	93.2432
7.51326655	93.2412
7.502393263	93.2148
7.491551403	93.2178
7.480740833	93.2263
7.469961418	93.2156
7.459213023	93.1807
7.448495516	93.1465
7.437808762	93.1248
7.42715263	93.1289
7.416526989	93.1541
7.405931707	93.1182
7.395366655	93.1084
7.384831703	93.0833
7.374326724	93.0940
7.363851589	93.0657
7.353406171	93.0574
7.342990345	93.0459
7.332603984	93.0374
7.322252325	93.0156
7.311924506	92.9558
7.30162578	92.9443
7.291356025	92.9004
7.281115117	92.8733
7.270902937	92.8125
7.260719363	92.7725
7.250564275	92.7002
7.240437554	92.6150
7.230339081	92.4939
7.220268738	92.3955
7.210226408	92.4463
7.200211974	92.4890
7.19022532	92.5342
7.18026633	92.5322
7.17033489	92.5593
7.160436013	92.5549
7.150559317	92.5359
7.140709829	92.4893
7.130887439	92.4138
7.121092034	92.3347
7.111323503	92.1956
7.101581735	92.0420
7.091866622	91.8792
7.082178053	91.7693
7.07251592	91.6406
7.062880115	91.5325
7.053270531	91.4922
7.04368706	91.4658
7.034129597	91.4248
7.024598035	91.4050
7.01509227	91.4226
7.005612196	91.4258
6.99615771	91.5020
6.986728709	91.5349
6.977325089	91.5674
6.967946748	91.6387
6.958593585	91.7083
6.949265497	91.7100
6.939962385	91.7117
6.930688952	91.7676
6.921435478	91.7673
6.912206681	91.8181
6.903002461	91.8369
6.893822721	91.8567
6.884667364	91.8728
6.875536292	91.8699
6.866429409	91.9299
6.857346618	91.9219
6.848287825	91.8699
6.839252935	91.8225
6.830241852	91.8818
6.821254483	91.8779
6.812290735	91.9092
6.803350514	91.9392
6.794433728	92.0252
6.785540285	92.0628
6.776670093	92.0684
6.767823062	92.0596
6.7589991	92.0466
6.750198118	92.0811
6.741420026	92.0410
6.732664735	92.0693
6.723932156	92.1072
6.715226709	92.2168
6.706539278	92.2061
6.697874296	92.1892
6.689231675	92.1983
6.680611329	92.1853
6.672013173	92.1729
6.663437121	92.1296
6.654883087	92.1047
6.646350987	92.1191
6.637840737	92.2097
6.629352253	92.1902
6.620885451	92.1433
6.612440248	92.0947
6.604016563	92.0574
6.595614312	92.0615
6.587233415	92.0645
6.578873789	92.1006
6.570535354	92.1296
6.56221803	92.0769
6.553921736	92.0554
6.545646392	92.0945
6.537391921	92.0371
6.529158241	92.0322
6.520945276	92.0938
6.512757189	92.1443
6.504585407	92.2615
6.496434107	92.3906
6.488303211	92.4121
6.480192643	92.3809
6.472102327	92.4150
6.464032186	92.4024
6.455982145	92.4753
6.44795213	92.5173
6.439942066	92.5664
6.431951879	92.6008
6.423981494	92.6638
6.416030838	92.7803
6.408099838	92.7859
6.400188422	92.6924
6.392296516	92.6824
6.384424048	92.7109
6.376570948	92.7195
6.368737143	92.7559
6.360922563	92.7654
6.353127136	92.7800
6.345350793	92.8611
6.337593464	92.8230
6.329855078	92.7610
6.322139564	92.7656
6.314438848	92.7634
6.30675687	92.7625
6.29909356	92.6865
6.291448851	92.6699
6.283822676	92.6377
6.276214965	92.6067
6.268625654	92.5205
6.261054675	92.4675
6.253501961	92.4404
6.245967447	92.3845
6.238451067	92.3059
6.230952756	92.1924
6.223472449	92.0984
6.21601008	91.9453
6.208565585	91.8069
6.201142747	91.6416
6.1937338	91.5252
6.186342535	91.4041
6.178968891	91.2334
6.171612803	91.0037
6.164274209	90.8298
6.156953047	90.7119
6.149649255	90.5508
6.14236277	90.4697
6.135093533	90.4705
6.12784148	90.5369
6.120606552	90.5237
6.113388688	90.5271
6.106187828	90.4736
6.099003911	90.4180
6.091836878	90.4736
6.084686669	90.5833
6.077553226	90.7813
6.070436489	90.9414
6.063336399	91.0945
6.056252899	91.3338
6.049185931	91.6934
6.042135436	91.8281
6.035101357	91.9568
6.02808727	92.1524
6.021085843	92.5176
6.01410066	92.9685
6.007131667	93.2913
6.000178805	93.5945
5.99324202	93.8513
5.986321256	94.0283
5.979416457	94.0779
5.972527568	94.1189
5.965654534	94.1260
5.9587973	94.0459
5.951955813	93.9883
5.945130017	93.9736
5.938319859	94.0566
5.931525286	94.0457
5.924746243	93.9363
5.917982678	93.9014
5.911234538	93.9199
5.904501769	93.9707
5.89778432	94.0938
5.891082139	94.1277
5.884395172	94.2214
5.87772337	94.3291
5.871066679	94.2937
5.864428488	94.3132
5.85780186	94.3337
5.851190191	94.3809
5.84459343	94.4031
5.838011527	94.4844
5.831444431	94.5691
5.824892094	94.6936
5.818354465	94.7471
5.811831494	94.7549
5.805323133	94.7869
5.798829332	94.8291
5.792350043	94.8694
5.785885217	94.8916
5.779434806	94.9421
5.772998761	94.9998
5.766577035	95.0837
5.760169579	95.0508
5.753776347	95.0078
5.747397291	95.0593
5.741032364	95.0645
5.734681519	95.0439
5.728344709	95.0439
5.722021888	95.0847
5.715713009	95.1121
5.709421287	95.1521
5.703140149	95.1404
5.696872816	95.1279
5.690619242	95.1355
5.684379382	95.1223
5.678153192	95.1553
5.671940626	95.1716
5.66574164	95.1804
5.659556189	95.1462
5.653384229	95.1433
5.647225716	95.1455
5.641080605	95.1777
5.634948854	95.1191
5.628830419	95.0759
5.622725256	95.0945
5.616633323	95.0925
5.610557723	95.0867
5.604492113	95.0750
5.598439603	95.0759
5.592400152	95.0723
5.586373717	95.0598
5.580360257	95.0857
5.574359729	95.1057
5.568372092	95.0527
5.562397304	95.0447
5.556435324	95.0720
5.550486112	95.1023
5.544549625	95.0945
5.538625823	95.1003
5.532714665	95.1150
5.526816112	95.1375
5.520930122	95.1660
5.515056656	95.1941
5.509195674	95.2029
5.503347136	95.2175
5.497511002	95.2227
5.491687233	95.2419
5.48587579	95.2715
5.480076633	95.3076
5.474289725	95.3181
5.468518015	95.3416
5.462755479	95.3691
5.457005076	95.3701
5.451266765	95.3594
5.445540511	95.3701
5.439826274	95.3455
5.434124016	95.3271
5.428433701	95.3467
5.422755291	95.3679
5.417088748	95.3535
5.411434035	95.2900
5.405791116	95.2693
5.400159953	95.2268
5.394540509	95.1902
5.388932749	95.1719
5.383336635	95.1360
5.377752132	95.1316
5.372179203	95.1121
5.366617813	95.1013
5.361067925	95.0930
5.355529504	95.1055
5.350002515	95.1104
5.344486921	95.1326
5.338982689	95.1289
5.333492627	95.1377
5.328011006	95.1580
5.32254064	95.1826
5.317081497	95.1816
5.31163354	95.1912
5.306196736	95.1843
5.30077105	95.1895
5.295356449	95.2175
5.289952898	95.2527
5.284560364	95.2588
5.279178813	95.2644
5.273808212	95.2888
5.268448526	95.3223
5.263099724	95.3425
5.257761771	95.3376
5.252434635	95.3748
5.247118283	95.4167
5.241812682	95.4502
5.236517799	95.4734
5.231233603	95.4941
5.225960061	95.5505
5.220697141	95.5837
5.21544481	95.6016
5.210203036	95.6133
5.204974498	95.6006
5.19975374	95.6101
5.194543444	95.6270
5.189343579	95.6296
5.184154115	95.6318
5.178975019	95.6433
5.173806261	95.6377
5.168647809	95.6257
5.163499634	95.6357
5.158361704	95.6580
5.153233989	95.6565
5.148116459	95.6582
5.143009082	95.6277
5.137911829	95.6445
5.13282467	95.6172
5.127747575	95.6201
5.122680514	95.6443
5.117623458	95.6355
5.112576376	95.6072
5.107539239	95.6306
5.102512018	95.6365
5.097494683	95.6316
5.092487206	95.6218
5.087489558	95.6035
5.082504292	95.6104
5.077526209	95.5879
5.072557868	95.5857
5.06759924	95.5547
5.062650297	95.5645
5.057711011	95.5681
5.052781354	95.5652
5.047861297	95.5496
5.042950812	95.5713
5.038049872	95.5801
5.033158448	95.5896
5.028276513	95.6042
5.023404039	95.6130
5.018541	95.6238
5.013687367	95.5945
5.008843113	95.6179
5.004010715	95.6169
4.999185133	95.6257
4.994368849	95.6604
4.989561837	95.6721
4.984764069	95.6877
4.979975518	95.6794
4.97519616	95.7034
4.970425966	95.7205
4.96566491	95.7424
4.960912967	95.7405
4.95617011	95.7463
4.951436313	95.7493
4.94671155	95.7625
4.941995795	95.7522
4.937289023	95.7678
4.932591209	95.7507
4.927902325	95.7698
4.923222347	95.7878
4.918551251	95.7878
4.913889009	95.8088
4.909235598	95.8206
4.904590991	95.8210
4.899955165	95.8411
4.895328095	95.8591
4.890712146	95.8879
4.886102507	95.8904
4.88150155	95.8967
4.876909249	95.9080
4.87232558	95.9275
4.86775052	95.9529
4.863184043	95.9641
4.858626126	95.9924
4.854076745	95.9934
4.849535875	96.0154
4.845003493	96.0281
4.840479575	96.0305
4.835964098	96.0417
4.831457037	96.0398
4.826958369	96.0437
4.822468072	96.0413
4.81798612	96.0486
4.813512492	96.0417
4.809047164	96.0652
4.804590113	96.0632
4.800141316	96.0388
4.79570075	96.0579
4.791268392	96.0842
4.78684422	96.0999
4.782430498	96.1082
4.778022625	96.0730
4.773622869	96.0959
4.769231209	96.1023
4.764847623	96.1086
4.760472086	96.1213
4.756104579	96.1291
4.751745078	96.1497
4.747393562	96.1594
4.743050009	96.1531
4.738714396	96.1614
4.734386703	96.1755
4.730066907	96.1843
4.725754987	96.2009
4.721450921	96.1882
4.717154688	96.1902
4.712866266	96.2156
4.708585635	96.2180
4.704312773	96.2327
4.700047658	96.2463
4.695790271	96.2444
4.691540589	96.2458
4.687298593	96.2620
4.68306426	96.2527
4.67883976	96.2463
4.67462069	96.2405
4.670409221	96.2434
4.666205334	96.2766
4.662009009	96.2800
4.657820224	96.2859
4.65363896	96.3166
4.649465195	96.3162
4.645298911	96.3123
4.641140087	96.3054
4.636988702	96.3108
4.632844738	96.2859
4.628708174	96.2888
4.62457899	96.3083
4.620457167	96.3357
4.616342684	96.3562
4.612235523	96.4036
4.608135664	96.4753
4.604043086	96.4509
4.599957772	96.3987
4.595879702	96.3616
4.591808856	96.3948
4.587745215	96.4109
4.58368876	96.4158
4.57964157	96.3870
4.575599426	96.3533
4.571564412	96.3367
4.567536508	96.3005
4.563515696	96.2844
4.559501956	96.2756
4.555495271	96.2947
4.551495621	96.2991
4.547502989	96.2996
4.543517355	96.2971
4.539538701	96.3127
4.535567009	96.2971
4.531602261	96.2791
4.527644439	96.2952
4.523693523	96.2952
4.519749497	96.2844
4.515814382	96.2888
4.511884077	96.2888
4.507960608	96.2898
4.504043956	96.2644
4.500134104	96.2214
4.496231034	96.2151
4.492334729	96.2419
4.488445171	96.2541
4.484562343	96.2522
4.480686226	96.2458
4.476816804	96.2434
4.47295406	96.2444
4.469097975	96.2581
4.465248534	96.2385
4.461405718	96.2419
4.45756951	96.2219
4.453739894	96.2126
4.449916853	96.2146
4.44610037	96.2249
4.442290427	96.2458
4.438487009	96.2234
4.434690097	96.2141
4.430899676	96.2288
4.42711573	96.2249
4.423340197	96.2170
4.419569145	96.1946
4.415804518	96.1970
4.412046298	96.1975
4.408294471	96.2034
4.404549018	96.2073
4.400809925	96.1853
4.397077175	96.2048
4.393350752	96.1741
4.389630639	96.1692
4.385916821	96.1643
4.382209282	96.1804
4.378508006	96.1936
4.374812977	96.2048
4.371124179	96.2166
4.367441596	96.1912
4.363765214	96.1697
4.360095015	96.1833
4.356430985	96.1736
4.352773108	96.1389
4.349121369	96.1423
4.345475751	96.1399
4.341836241	96.1443
4.338202821	96.1316
4.334577357	96.1541
4.330956072	96.1316
4.327340832	96.1355
4.323731623	96.1301
4.320128429	96.0979
4.316531235	96.1052
4.312940028	96.0920
4.30935479	96.0691
4.305775509	96.0535
4.302202168	96.0769
4.298634754	96.0300
4.29507325	96.0398
4.291517644	96.0393
4.287967919	96.0559
4.284424062	96.0544
4.280886058	96.0681
4.277353892	96.0652
4.27382755	96.0686
4.270307018	96.0623
4.266792281	96.0330
4.263283325	96.0471
4.259780136	96.0457
4.256282699	96.0383
4.252791	96.0432
4.249306832	96.0242
4.245826565	96.0139
4.242351994	96.0452
4.238883105	96.0115
4.235419885	96.0222
4.231962319	96.0124
4.228510393	95.9592
4.225064094	95.9866
4.221623408	95.9832
4.218188322	95.9773
4.214758821	95.9636
4.211334892	95.9807
4.207916522	95.9749
4.204503696	95.9963
4.201096402	95.9866
4.197694626	95.9802
4.194300114	96.0198
4.190909331	96.0334
4.187524026	96.0476
4.184144186	96.0374
4.180769797	96.0417
4.177400846	96.0315
4.174037321	96.0613
4.170679208	96.0740
4.167326493	96.0632
4.163979165	96.0242
4.16063721	95.9861
4.157300615	95.9788
4.153969367	95.9680
4.150643454	95.9260
4.147322862	95.9612
4.144007579	95.9929
4.140697592	95.9685
4.137392888	95.9690
4.134093455	95.9846
4.130799281	95.9783
4.127510352	95.9656
4.124226656	95.9597
4.120948181	95.9529
4.117674914	95.9851
4.114408535	96.0041
4.111145645	96.0095
4.107887925	95.9812
4.104635365	95.9495
4.101387951	95.9402
4.098145671	95.9299
4.094908514	95.9109
4.091676466	95.9377
4.088449517	95.9548
4.085227653	95.9631
4.082010864	95.9841
4.078799136	95.9841
4.075592459	95.9612
4.072390819	95.9495
4.069194206	95.9675
4.066002607	95.9827
4.062816011	96.0046
4.059634406	95.9910
4.056457779	95.9626
4.053286121	95.9797
4.050119418	95.9573
4.046957659	95.9553
4.043800833	95.9216
4.040648928	95.9456
4.037503563	95.9729
4.034361463	95.9529
4.031224251	95.9548
4.028091913	95.9529
4.024964439	95.9607
4.021841819	95.9705
4.018724039	95.9924
4.01561109	95.9841
4.012502959	95.9675
4.009399637	95.9260
4.00630111	95.9431
4.00320737	95.9333
4.000118404	95.9441
3.997034201	95.9324
3.99395475	95.8826
3.990880041	95.8738
3.987810062	95.8870
3.984744803	95.8874
3.981684252	95.8772
3.9786284	95.8640
3.975577234	95.8337
3.972530744	95.8289
3.96948892	95.8494
3.966451751	95.8640
3.963420797	95.8865
3.960392903	95.8611
3.957369631	95.8733
3.954350972	95.8948
3.951336915	95.8796
3.948327449	95.8928
3.945322564	95.8889
3.942322249	95.9065
3.939326493	95.9109
3.936335288	95.9343
3.933348621	95.9221
3.930366483	95.8962
3.927388864	95.8992
3.924415753	95.9104
3.921447139	95.8953
3.918483014	95.8791
3.915523366	95.8660
3.912568186	95.8347
3.909617463	95.8269
3.906671188	95.8303
3.90372935	95.8523
3.900791939	95.8562
3.897858945	95.8796
3.894930359	95.8772
3.892007684	95.8640
3.889087881	95.8425
3.886172454	95.8347
3.883261396	95.8181
3.880354695	95.7986
3.877452343	95.7605
3.874554329	95.7053
3.871660644	95.6936
3.868771278	95.6707
3.865886222	95.6589
3.863005465	95.6746
3.860128998	95.6599
3.857256812	95.6316
3.854388896	95.6492
3.851525243	95.6877
3.848665841	95.6838
3.845812161	95.6936
3.842961232	95.6511
3.840114528	95.6296
3.837272037	95.6433
3.834433752	95.6599
3.831599662	95.6213
3.828769759	95.5603
3.825944033	95.5745
3.823122474	95.6096
3.820305074	95.6013
3.817491824	95.5867
3.814682714	95.5896
3.811877735	95.5837
3.809076878	95.5984
3.806280134	95.5588
3.803487494	95.5076
3.800698949	95.5115
3.797914489	95.5237
3.795134107	95.4880
3.792357792	95.4939
3.789585537	95.4963
3.786817332	95.4900
3.784053167	95.4695
3.781293036	95.4919
3.778538356	95.4846
3.77578626	95.4207
3.773038171	95.3987
3.770294079	95.3987
3.767553976	95.3616
3.764817852	95.3284
3.7620857	95.3088
3.759357511	95.3108
3.756633275	95.3152
3.753912985	95.3088
3.751196632	95.2932
3.748484207	95.3093
3.745775701	95.2800
3.743071107	95.2576
3.740370416	95.2332
3.73767362	95.2556
3.734980709	95.2703
3.732291676	95.2419
3.729606512	95.1902
3.726925208	95.1897
3.724247758	95.1667
3.721574151	95.1228
3.718904381	95.1042
3.716238438	95.0984
3.713577694	95.0681
3.71091938	95.0789
3.708264869	95.0764
3.705614154	95.0881
3.702967225	95.0447
3.700324074	95.0408
3.697684695	95.0413
3.695049078	94.9812
3.692417215	94.9314
3.689789099	94.9202
3.687164722	94.9470
3.684544075	94.9319
3.68192715	94.8499
3.67931394	94.8503
3.676704437	94.8655
3.674098633	94.8376
3.67149652	94.8186
3.66889809	94.7913
3.666303336	94.8069
3.663712249	94.8225
3.661124822	94.8084
3.658541047	94.8162
3.655960916	94.8323
3.653384422	94.7932
3.65081289	94.8010
3.648243644	94.7712
3.645678012	94.7634
3.643115986	94.7664
3.640557559	94.7146
3.638002722	94.6638
3.635451469	94.6326
3.632903791	94.6252
3.630359682	94.6331
3.627819133	94.6228
3.625282138	94.6116
3.622748688	94.5554
3.620218777	94.5447
3.617692397	94.5320
3.615169541	94.5408
3.6126502	94.5256
3.610135673	94.5271
3.607623341	94.5212
3.605114504	94.4827
3.602609154	94.5081
3.600107283	94.4851
3.597608885	94.4734
3.595113953	94.4182
3.592622478	94.3943
3.590134454	94.4246
3.587649874	94.4417
3.585168731	94.4246
3.582691017	94.3826
3.580216725	94.3630
3.577745848	94.3420
3.57527838	94.3362
3.572814313	94.3025
3.57035364	94.2761
3.567896354	94.2971
3.565442448	94.2537
3.562991916	94.2092
3.560544749	94.1917
3.558100942	94.2078
3.555660487	94.1585
3.553223378	94.1443
3.550790868	94.1775
3.548360427	94.1443
3.545933311	94.1345
3.543509513	94.1233
3.541089027	94.1135
3.538671844	94.0925
3.53625796	94.0764
3.533847367	94.0642
3.531440058	94.0295
3.529036026	93.9988
3.526635266	94.0042
3.524237769	93.9627
3.52184353	93.9529
3.519452542	93.9773
3.517064798	93.9221
3.514680292	93.9275
3.512299017	93.9480
3.509920967	93.9412
3.507546135	93.9163
3.505174514	93.8826
3.502806098	93.8337
3.500440881	93.7888
3.498078855	93.7761
3.495720015	93.7810
3.493365575	93.7449
3.491013085	93.7205
3.488663762	93.7522
3.486317598	93.7127
3.483974588	93.6663
3.481634725	93.6677
3.479298003	93.6716
3.476964415	93.6467
3.474633956	93.6252
3.472306619	93.6252
3.469982397	93.6169
3.467661284	93.6248
3.465343275	93.6658
3.463028363	93.6101
3.460716541	93.5759
3.458407804	93.5862
3.456102146	93.5530
3.453799559	93.5222
3.451500039	93.5486
3.449203579	93.5447
3.446910172	93.5271
3.444619814	93.5120
3.442332497	93.4841
3.440048216	93.4397
3.437768146	93.4197
3.435489916	93.4221
3.433214704	93.4260
3.430942504	93.4124
3.428673309	93.4060
3.426407114	93.3669
3.424143913	93.3025
3.421883699	93.2639
3.419626467	93.2127
3.417372212	93.1521
3.415120926	93.0862
3.412872605	93.0608
3.410627242	93.0315
3.408384831	93.0310
3.406145367	93.0076
3.403908845	93.0349
3.401675257	93.0139
3.399444599	92.9924
3.397216864	92.9978
3.394992047	93.0271
3.392770143	93.0349
3.390551144	93.0217
3.388335047	92.9983
3.386121844	92.9714
3.383912676	92.9861
3.381705245	92.9592
3.379500692	92.9710
3.377299012	92.9729
3.375100198	92.9832
3.372904246	93.0007
3.370711149	93.0212
3.368520903	92.9890
3.366333501	92.9202
3.364148938	92.8909
3.361967208	92.8611
3.359788306	92.8323
3.357612227	92.8499
3.355438965	92.8650
3.353268515	92.8298
3.35110087	92.7791
3.348937148	92.7947
3.346775098	92.7966
3.344615837	92.7605
3.342459362	92.7385
3.340305665	92.7478
3.338154741	92.7717
3.336006587	92.7092
3.333861195	92.6775
3.33171856	92.6726
3.329578678	92.6502
3.327441544	92.6209
3.32530715	92.5984
3.323175494	92.5740
3.321046568	92.5706
3.318920368	92.5398
3.31679689	92.5471
3.314676126	92.5232
3.312558073	92.5276
3.310442725	92.5120
3.308330077	92.5276
3.306220124	92.5237
3.304112861	92.5159
3.302008281	92.5003
3.299906382	92.4334
3.297808244	92.4807
3.295711686	92.4221
3.293617792	92.3806
3.291526557	92.3440
3.289437976	92.3069
3.287352045	92.2898
3.285268756	92.2283
3.283188107	92.2107
3.281110091	92.1526
3.279034705	92.1311
3.276961942	92.1096
3.274891798	92.0764
3.272824267	92.0862
3.270759346	92.0798
3.268697029	92.0784
3.26663731	92.0427
3.264580186	92.0315
3.262525652	91.9788
3.260473701	91.9670
3.25842433	91.9470
3.256377534	91.9509
3.254333308	91.9202
3.252291646	91.9021
3.250252545	91.8674
3.248217054	91.8518
3.246183057	91.8318
3.244151606	91.8264
3.242122696	91.8342
3.240096322	91.8303
3.238072479	91.8010
3.236051163	91.8186
3.234032369	91.7893
3.232016093	91.7380
3.230002329	91.6643
3.227991073	91.6565
3.22598232	91.6311
3.223976065	91.6213
3.221972305	91.5452
3.219971033	91.5623
3.217972246	91.5276
3.215975939	91.5022
3.213982108	91.4900
3.211990747	91.4607
3.210001852	91.4534
3.208015419	91.4099
3.206031443	91.3850
3.204049919	91.3499
3.202070843	91.3694
3.200095235	91.3298
3.19812104	91.3005
3.196149279	91.2639
3.194179949	91.2361
3.192213043	91.1668
3.190248559	91.1199
3.18828649	91.1326
3.186326834	91.1052
3.184369586	91.0593
3.18241474	91.0115
3.180462293	90.9705
3.17851224	90.9255
3.176564577	90.8836
3.1746193	90.8172
3.172676403	90.7615
3.170735883	90.7449
3.168797736	90.6697
3.166861956	90.6922
3.164928541	90.6804
3.162997484	90.6248
3.161068783	90.5320
3.159142432	90.4568
3.157218427	90.4265
3.155296765	90.3787
3.153378435	90.3250
3.151461443	90.2849
3.14954678	90.2752
3.147634443	90.2400
3.145724426	90.1882
3.143816726	90.0769
3.141911338	90.0173
3.140008258	90.0213
3.138107483	89.9988
3.136209007	89.9265
3.134312827	89.9304
3.132418938	89.9187
3.130527337	89.8513
3.128638019	89.8240
3.126750981	89.7810
3.124866217	89.7107
3.122984699	89.6580
3.121104471	89.5701
3.119226507	89.5007
3.1173508	89.4734
3.115477349	89.4207
3.113606148	89.3416
3.111737193	89.2586
3.10987048	89.1746
3.108006006	89.1267
3.106143766	89.0281
3.104283756	88.8924
3.102425973	88.8533
3.100570412	88.7693
3.098717069	88.6687
3.096865941	88.6121
3.095017023	88.5466
3.093170311	88.4265
3.091325802	88.3504
3.089483491	88.2830
3.087643375	88.2058
3.085805449	88.1306
3.08396971	88.1131
3.082136155	88.0603
3.080304778	88.0086
3.078476524	87.9148
3.076649492	87.8797
3.074824627	87.8211
3.073001926	87.7351
3.071181385	87.6648
3.069363	87.5691
3.067546766	87.4881
3.065732681	87.4539
3.06392074	87.3758
3.06211094	87.2625
3.060303276	87.1970
3.058497745	87.1951
3.056694344	87.1336
3.054893068	87.1004
3.053093914	87.0408
3.051296877	86.9695
3.049501955	86.8494
3.047709144	86.8064
3.045918439	86.7273
3.044129837	86.6472
3.042343335	86.6092
3.040558928	86.5662
3.038776613	86.5261
3.036996386	86.4988
3.035219166	86.4314
3.033443104	86.3240
3.031669119	86.2351
3.029897208	86.2097
3.028127367	86.1873
3.026359592	86.1062
3.02459388	86.0369
3.022830228	85.9353
3.021068631	85.8220
3.019309085	85.6756
3.017551589	85.5642
3.015796137	85.4802
3.014042726	85.3689
3.012291354	85.2849
3.010542015	85.1853
3.008794707	85.1053
3.007049426	84.9998
3.005306169	84.8650
3.003564931	84.6687
3.00182571	84.5603
3.000088503	84.4392
2.998353304	84.2859
2.996620112	84.1570
2.994888923	84.0574
2.993160628	83.9275
2.991433432	83.7615
2.989708228	83.6179
2.987985013	83.4539
2.986263784	83.3357
2.984544536	83.1687
2.982827267	82.9920
2.981111973	82.8357
2.97939865	82.7088
2.977687296	82.5242
2.975977906	82.3494
2.974270478	82.1814
2.972565009	82.0623
2.970861493	81.9041
2.96915993	81.7039
2.967460314	81.5594
2.965763522	81.4178
2.964067792	81.2820
2.962373999	81.1541
2.960682141	80.9617
2.958992215	80.7928
2.957304216	80.6599
2.955618142	80.5428
2.95393399	80.4236
2.952251756	80.2791
2.950571437	80.1814
2.94889303	80.0506
2.947216531	79.8641
2.945541937	79.7351
2.943869245	79.6600
2.942198452	79.4705
2.940529554	79.3592
2.938862549	79.2508
2.937197432	79.1121
2.935534201	79.0447
2.933872853	78.9412
2.932213384	78.8562
2.930555792	78.7937
2.928900072	78.7234
2.927246222	78.6560
2.925595095	78.5984
2.923944975	78.5613
2.922296715	78.5213
2.920650312	78.4617
2.919005763	78.4197
2.917363066	78.4158
2.915722216	78.3885
2.91408321	78.2771
2.912446047	78.2195
2.910810722	78.2225
2.909177232	78.2596
2.907545575	78.2791
2.905915747	78.2713
2.904287745	78.2703
2.902661566	78.2859
2.901037208	78.2771
2.899414666	78.2732
2.897793938	78.3221
2.896175022	78.3533
2.894557913	78.3396
2.892942609	78.3289
2.891329106	78.3787
2.889717403	78.3484
2.888107495	78.3875
2.886500214	78.3846
2.884893888	78.4432
2.883289349	78.4422
2.881686594	78.4266
2.880085619	78.4568
2.878486423	78.4021
2.876889001	78.4178
2.875293352	78.4568
2.873699471	78.4422
2.872107357	78.4656
2.870517006	78.4930
2.868928415	78.4344
2.867341582	78.4236
2.865756502	78.4939
2.864173175	78.5057
2.862591596	78.5672
2.861011762	78.5721
2.859433672	78.5447
2.857857321	78.6023
2.856282708	78.6717
2.854709829	78.6678
2.853138681	78.6990
2.851569261	78.7508
2.850001568	78.8201
2.848436408	78.8592
2.846872156	78.9002
2.845309621	78.9705
2.8437488	79.0125
2.842189691	79.0291
2.840632291	79.0779
2.839076596	79.1268
2.837522604	79.1424
2.835970313	79.1853
2.834419719	79.2010
2.83287082	79.2478
2.831323613	79.3211
2.829778094	79.4070
2.828234263	79.4617
2.826692114	79.5037
2.825151647	79.5369
2.823612858	79.5564
2.822075744	79.6775
2.820540303	79.7244
2.819006531	79.7713
2.817474427	79.8103
2.815943987	79.8709
2.81441521	79.8875
2.812888091	79.9471
2.811363418	79.9344
2.809839609	79.9344
2.80831745	80.0369
2.806796939	80.0818
2.805278075	80.1023
2.803760853	80.1717
2.802245271	80.2156
2.800731327	80.2361
2.799219018	80.2791
2.797708341	80.4041
2.796199294	80.4373
2.794691874	80.5242
2.793186078	80.6033
2.791681905	80.6775
2.79017935	80.7615
2.788678412	80.8396
2.787179865	81.0037
2.785682151	81.1424
2.784186046	81.2742
2.782691547	81.3162
2.781198652	81.3611
2.779707358	81.4851
2.778217662	81.5701
2.776729562	81.7068
2.775243056	81.7703
2.77375814	81.8474
2.772274812	81.8846
2.77079307	82.0076
2.769312911	82.0633
2.767834333	82.1072
2.766357333	82.1248
2.764881908	82.0701
2.763408056	82.0428
2.761935774	82.0037
2.760465061	82.0437
2.758995913	82.0135
2.757528328	81.9197
2.756062304	81.8553
2.754597837	81.6765
2.753134926	81.4510
2.751674325	81.2049
2.750214517	80.9461
2.748756257	80.6580
2.747299542	80.4734
2.74584437	80.2351
2.74439074	79.9139
2.742938647	79.6570
2.741488091	79.4266
2.740039067	79.1922
2.738591575	78.8299
2.737145611	78.4500
2.735701174	77.9666
2.73425826	77.4695
2.732816867	76.6580
2.731376994	75.8162
2.729938636	74.8670
2.728501793	73.7068
2.727066462	72.4490
2.72563264	71.0281
2.724200325	69.6336
2.722769514	68.3182
2.721340206	67.2664
2.719912397	66.6492
2.718486086	66.6453
2.717062008	67.4334
2.715638684	68.8914
2.714216851	70.7156
2.712796505	72.7342
2.711377646	74.7732
2.709960269	76.7146
2.708544374	78.3846
2.707129958	79.7469
2.705717018	80.8836
2.704305552	81.9060
2.702895558	83.1765
2.701487034	84.6541
2.700079976	86.2429
2.698674384	87.6531
2.697270255	88.7625
2.695867585	89.6423
2.694466374	90.3826
2.693066619	90.9109
2.691668318	91.3718
2.690271467	91.7595
2.688876066	92.1052
2.687482111	92.3806
2.686089602	92.6404
2.684698534	92.8962
2.683309626	93.0398
2.681921436	93.1365
2.680534681	93.1677
2.679149359	93.3552
2.677765469	93.4382
2.676383008	93.5388
2.675001973	93.6101
2.673622363	93.6843
2.672244175	93.7429
2.670867407	93.9216
2.669492057	93.9861
2.668118123	93.8787
2.666745602	93.9304
2.665374493	93.9763
2.664004793	93.9568
2.6626365	93.9255
2.66127032	94.0828
2.659904834	94.1052
2.658540748	94.1257
2.657178061	94.1599
2.65581677	94.2498
2.654456873	94.2664
2.653098368	94.2615
2.651741253	94.3015
2.650385525	94.3025
2.649031183	94.2927
2.647678224	94.2820
2.646326647	94.2263
2.644976449	94.2585
2.643627628	94.2000
2.642280182	94.2810
2.640934109	94.2459
2.639589407	94.2585
2.638246073	94.2302
2.636904106	94.1882
2.635563503	94.1843
2.634224263	94.1599
2.632886383	94.1570
2.631549862	94.2625
2.630214697	94.2927
2.628881577	94.2771
2.627549117	94.2468
2.626218007	94.2781
2.624888245	94.1951
2.62355983	94.1804
2.622232758	94.2351
2.620907028	94.2507
2.619582638	94.3562
2.618259585	94.2888
2.616937869	94.2546
2.615617486	94.2986
2.614298435	94.2507
2.612980713	94.3562
2.61166432	94.2986
2.610349252	94.2039
2.609035507	94.2585
2.607723085	94.3044
2.606411982	94.3484
2.605102197	94.3982
2.603793727	94.3240
2.602486572	94.2068
2.601180728	94.1287
2.599876194	94.0779
2.598572968	94.1013
2.597271722	94.0818
2.595971105	94.2029
2.59467179	94.3210
2.593373774	94.2742
2.592077057	94.2498
2.590781636	94.3044
2.589487509	94.2585
2.588194675	94.2820
2.58690313	94.2576
2.585612874	94.2273
2.584323905	94.2312
2.58303622	94.1990
2.581749817	94.1804
2.580464695	94.1423
2.579180852	94.0134
2.577898286	94.0037
2.576616995	94.1111
2.575336976	94.1697
2.574058229	94.2478
2.572780751	94.2029
2.571504541	94.0916
2.570229596	94.1853
2.568955915	94.0564
2.567683495	94.0095
2.566412994	93.9998
2.565143091	94.0505
2.563874445	94.0642
2.562607053	94.0994
2.561340913	94.1189
2.560076024	94.1150
2.558812384	94.0584
2.55754999	94.0193
2.556288841	93.8826
2.555028936	93.9236
2.553770272	93.9177
2.552512847	93.9529
2.55125666	93.9490
2.550001709	93.8865
2.548747991	93.8865
2.547495506	93.9548
2.546244252	93.9138
2.544994225	93.9236
2.543745426	94.0095
2.542497852	93.9431
2.5412515	93.9763
2.54000637	93.9548
2.53876246	94.0701
2.537519767	94.0720
2.536278934	94.0291
2.535038671	94.0427
2.53379962	94.0349
2.53256178	94.0779
2.531325149	94.0896
2.530089725	94.1033
2.528855506	93.9080
2.52762249	93.8142
2.526390677	93.8923
2.525160064	93.9490
2.523930648	93.8826
2.52270243	93.7986
2.521475406	93.7908
2.520249575	93.7986
2.519024936	93.7888
2.517801486	93.9294
2.516579857	93.9705
2.515358781	93.8611
2.514138889	93.8084
2.512920179	93.8377
2.511702651	93.8767
2.510486301	94.0369
2.50927113	93.9548
2.508057134	93.8279
2.506844312	93.8416
2.505632662	93.8630
2.504422183	93.8767
2.503212874	93.8416
2.502004731	93.8201
2.500797754	93.8572
2.499591942	93.8513
2.498387291	93.8943
2.497183801	93.8904
2.49598147	93.7888
2.494780296	93.6970
2.493580278	93.7654
2.492381413	93.7576
2.491183701	93.7634
2.489987139	93.7986
2.488791726	93.7908
2.48759808	93.8162
2.486404959	93.7439
2.485212983	93.7302
2.484022149	93.8259
2.482832455	93.8689
2.4816439	93.8865
2.480456483	93.8962
2.479270202	93.7908
2.478085055	93.7576
2.47690104	93.8377
2.475718156	93.8982
2.474536402	93.8552
2.473355775	93.7595
2.472176274	93.7615
2.470997898	93.7810
2.469820644	93.8084
2.468644512	93.7771
2.467469499	93.7966
2.466295604	93.6658
2.465122826	93.5330
2.463951163	93.6013
2.462780612	93.6834
2.461611174	93.6443
2.460442845	93.6111
2.45927623	93.6912
2.458110116	93.6990
2.456945108	93.6716
2.455781204	93.6345
2.454618401	93.4959
2.4534567	93.4998
2.452296097	93.6443
2.451136592	93.5818
2.449978183	93.5310
2.448820868	93.5134
2.447664646	93.5095
2.446509516	93.4548
2.445355475	93.4783
2.444202523	93.4705
2.443050657	93.4939
2.441899876	93.5076
2.440750179	93.5896
2.439601564	93.5818
2.43845403	93.5662
2.437307575	93.5623
2.436162197	93.5857
2.435017895	93.5701
2.433874668	93.5330
2.432732513	93.5252
2.431592022	93.6091
2.430452008	93.5877
2.429313063	93.5720
2.428175185	93.5076
2.427038372	93.5193
2.425902624	93.5095
2.424767938	93.5154
2.423634312	93.5623
2.422501747	93.5955
2.421370239	93.6365
2.420239788	93.5974
2.419110392	93.5154
2.417982049	93.5486
2.416854758	93.5388
2.415728518	93.4060
2.414603328	93.3787
2.413479185	93.4685
2.412356088	93.4314
2.411234036	93.4841
2.410113027	93.5466
2.40899306	93.4490
2.407874134	93.3474
2.406756246	93.3396
2.405639396	93.3084
2.40452416	93.3435
2.40340938	93.4158
2.402295634	93.3787
2.401182919	93.4236
2.400071234	93.3552
2.398960578	93.2966
2.39785095	93.3201
2.396742348	93.2966
2.39563477	93.3669
2.394528216	93.4705
2.393422683	93.2673
2.392318171	93.2732
2.391214677	93.3318
2.390112201	93.4216
2.389010742	93.4255
2.387910297	93.3435
2.386811435	93.2888
2.385713014	93.2615
2.384615605	93.3123
2.383519204	93.3533
2.382423811	93.3689
2.381329425	93.2966
2.380236043	93.2419
2.379143665	93.2849
2.37805229	93.3123
2.376961915	93.2127
2.375872539	93.2498
2.374784162	93.3220
2.373696781	93.3923
2.372610396	93.3904
2.371525004	93.3904
2.370440606	93.3748
2.369357198	93.4334
2.368274781	93.4919
2.367193351	93.5349
2.366112909	93.4529
2.365033453	93.4607
2.363954982	93.3377
2.362877493	93.3318
2.361800987	93.4099
2.360726018	93.3357
2.35965147	93.1599
2.3585779	93.1248
2.357505307	93.1716
2.356433688	93.2810
2.355363044	93.1111
2.354293372	93.1677
2.353224671	93.0935
2.35215694	93.0349
2.351090177	93.2595
2.350024382	93.2966
2.348959552	93.2380
2.347895687	93.2810
2.346832785	93.2537
2.345770845	93.2537
2.344709866	93.1677
2.343649846	93.1736
2.342590784	93.2127
2.341532678	93.1267
2.340475528	93.0935
2.339419333	93.0701
2.33836409	93.0076
2.337309798	92.9919
2.336256457	93.0857
2.335204611	93.1033
2.334153166	93.1326
2.333102667	93.0564
2.332053114	93.0642
2.331004504	93.2107
2.329956838	93.1677
2.328910112	93.1814
2.327864326	93.1951
2.32681948	93.1638
2.325775571	93.1834
2.324732598	93.2127
2.32369056	93.2459
2.322649456	93.2419
2.321609284	93.2263
2.320570043	93.2830
2.319531733	93.2439
2.318494351	93.1716
2.317457897	93.2283
2.316422369	93.3455
2.315387766	93.3201
2.314354087	93.1736
2.31332133	93.1013
2.312289495	93.1169
2.31125858	93.1091
2.310229117	93.1189
2.309200038	93.1189
2.308171875	93.0173
2.307144627	92.9021
2.306118293	92.9255
2.305092872	93.0115
2.304068363	92.9080
2.303044763	92.9783
2.302022073	92.9099
2.301000291	92.9705
2.299979415	93.1052
2.298959445	93.1091
2.297940379	93.2205
2.296922216	93.2341
2.295904955	93.2654
2.294888595	93.2185
2.29387366	93.2459
2.292859097	93.2576
2.291845431	93.3435
2.29083266	93.1423
2.289820785	93.1580
2.288809803	93.0720
2.287799713	93.0173
2.286790515	93.1033
2.285782206	93.1658
2.284774786	93.1248
2.283768254	93.0564
2.282762608	93.1443
2.281757848	93.2693
2.280753972	93.0623
2.279750978	92.9548
2.278748867	93.1169
2.277747636	93.1794
2.276747284	93.1033
2.275747811	93.0310
2.274749215	92.9705
2.273751494	92.9841
2.272754649	92.9861
2.271758677	93.0544
2.270763578	93.1111
2.269769866	93.0544
2.268776508	93.1326
2.267784019	93.3669
2.266792398	93.5076
2.265801644	93.5154
2.264811756	93.3591
2.263822732	93.3767
2.262834571	93.4841
2.261847273	93.3435
2.260860836	93.1814
2.259875259	93.2283
2.258890541	93.1951
2.257906681	93.1755
2.256923678	93.1658
2.25594153	93.1951
2.254960236	93.3611
2.253979796	93.3787
2.253000208	93.5232
2.252021471	93.4685
2.251043584	93.2205
2.250066546	93.2048
2.249090355	93.1970
2.248115012	93.2576
2.247140514	93.2615
2.246167365	93.3982
2.245194554	93.3513
2.244222586	93.3982
2.243251458	93.4568
2.242281171	93.4138
2.241311723	93.3904
2.240343113	93.4314
2.23937534	93.3220
2.238408402	93.2654
2.237442299	93.3201
2.23647703	93.3298
2.235512593	93.2029
2.234548988	93.2654
2.233586213	93.4607
2.232624267	93.4294
2.231663149	93.4802
2.230702859	93.5584
2.229743394	93.5720
2.228784755	93.5193
2.22782694	93.4373
2.226869947	93.5388
2.225913777	93.6091
2.224958427	93.5017
2.224003896	93.4080
2.223050679	93.3591
2.222097785	93.4627
2.221145707	93.4607
2.220194445	93.3923
2.219243997	93.4412
2.218294362	93.4314
2.21734554	93.4255
2.21639753	93.4685
2.215450329	93.5095
2.214503938	93.5252
2.213558355	93.4939
2.212613579	93.5408
2.211669609	93.7127
2.210726445	93.6404
2.209784084	93.6248
2.208842527	93.5486
2.207901771	93.5232
2.206961817	93.2498
2.206022662	93.2576
2.205084307	93.4627
2.204146749	93.3923
2.203209989	93.4783
2.202274024	93.3904
2.201338854	93.4763
2.200404963	93.6716
2.199471379	93.6189
2.198538587	93.4002
2.197606587	93.3923
2.196675376	93.3923
2.195744954	93.5095
2.194815319	93.5466
2.193886472	93.4841
2.192958411	93.5173
2.192031134	93.6013
2.191104641	93.6013
2.190178931	93.6169
2.189254003	93.5935
2.188329856	93.5310
2.187406488	93.6248
2.1864839	93.6091
2.185562567	93.5427
2.184641533	93.5037
2.183721275	93.3435
2.182801792	93.3630
2.181883083	93.5584
2.180965147	93.4607
2.180047983	93.4294
2.17913159	93.3630
2.178215967	93.1755
2.177301113	93.2537
2.176387028	93.4060
2.175473709	93.4763
2.174561157	93.5662
2.17364937	93.5466
2.172738348	93.6912
2.171828089	93.6482
2.170918592	93.8084
2.170009856	93.8591
2.169101881	93.8904
2.168194666	93.9919
2.167288209	93.9255
2.166382509	93.8435
2.165477567	94.1248
2.16457338	94.1013
2.163670416	94.0310
2.162767737	93.9959
2.161865811	93.9294
2.160964637	93.8318
2.160064214	93.9412
2.159164542	94.1873
2.158265618	93.9412
2.157367442	93.6755
2.156470014	93.6794
2.155573332	93.6716
2.154677395	93.6716
2.153782203	93.5388
2.152887754	93.4998
2.151994048	93.4529
2.151101084	93.6404
2.150208861	93.8240
2.149317377	93.8318
2.148426632	93.6755
2.147536625	93.5037
2.146647355	93.4529
2.145758822	93.4998
2.144871024	93.5466
2.14398396	93.5740
2.143097629	93.5662
2.14221249	93.4841
2.141327623	93.4177
2.140443487	93.5349
2.139560081	93.6052
2.138677403	93.7224
2.137795454	93.5974
2.136914232	93.8787
2.136033736	93.7927
2.135153965	93.8123
2.134274919	93.8943
2.133396596	93.9529
2.132518995	94.0037
2.131642117	94.0740
2.130765959	94.1482
2.129890521	94.2341
2.129015803	94.2459
2.128141802	94.0662
2.127268519	94.1091
2.126395952	94.0623
2.125524101	94.0271
2.124652964	93.9724
2.123782542	94.1951
2.122912832	94.1482
2.122043834	94.0349
2.121175997	94.1873
2.12030842	94.1873
2.119441553	94.0935
2.118575394	94.0935
2.117709942	94.1130
2.116845198	94.0701
2.115981159	93.8552
2.115117826	93.7966
2.114255197	94.0076
2.113393271	94.0271
2.112532047	94.2068
2.111671525	94.1404
2.110811704	93.9919
2.109952583	93.9177
2.109094161	93.9880
2.108236437	94.0076
2.107379855	93.9177
2.106523524	94.1443
2.105667889	93.9880
2.104812949	93.9216
2.103958703	94.1209
2.103105151	94.1209
2.10225229	94.0584
2.101400121	93.8474
2.100548642	93.8474
2.099697853	94.1365
2.098847754	94.1091
2.097998342	94.2537
2.097149617	94.3630
2.096301579	94.3982
2.095454226	94.4099
2.094607559	94.4919
2.093761575	94.7693
2.092916274	94.8084
2.092071655	94.6794
2.091227718	94.8279
2.090384461	94.8787
2.089541885	94.7498
2.088699987	94.4724
2.087858767	94.3357
2.08701866	93.9490
2.086178794	93.9138
2.085339604	93.9763
2.084501088	94.0623
2.083663247	94.0662
2.082826078	94.0037
2.081989583	94.2224
2.081153758	94.3318
2.080318605	94.4138
2.079484122	94.5349


