Name:  Hornblende Schist 
Type:  Rocks
Class:  Metamorphic 
Subclass: Schist 
Particle Size:  500-1500 Micrometer
Sample No.:   schist9.doc
Owner:  JHU
Wavelength Range:  All
Origin:  Sample No. 393, The Hunt and Salisbury Collection at the U.S. 
Geological Survey, Denver, Co.
Description: This low grade schist is a very coarse-grained rock composed of 
bands of acicular hornblende and feldspar.  Microscopically there are large 
hornblende subhedra associated with serpophite and chlorite.  In addition to the 
alkali feldspar anhedra there are small muscovite subhedra, and scattered 
magnetite.  Calcite crystals and grains occur throughout the sample, often 
associated with the hornblende or serpophite/chlorite.  
Measurement:  Directional (10 Degree) Hemispherical Reflectance
First Column:  X
Second Column:  Y  
X Units:  Wavelength (micrometers)
Y Units:  Reflectance (percent)
First X Value: 14.9831	
Last X Value:  0.4
Number of X Values: 2868
Additional Information:  schist9a.txt

14.9831	2.6758
14.9831	3.0947
14.9399	2.8797
14.897	2.6602
14.8543	2.6038
14.8119	2.6474
14.7697	2.6959
14.7277	2.712
14.686	2.7182
14.6445	2.7376
14.6033	2.73
14.5622	2.649
14.5214	2.5716
14.4809	2.5247
14.4405	2.5259
14.4004	2.5245
14.3605	2.4795
14.3209	2.4764
14.2814	2.5091
14.2422	2.4769
14.2032	2.4899
14.1643	2.5202
14.1258	2.5076
14.0874	2.4693
14.0492	2.4788
14.0112	2.5372
13.9734	2.5678
13.9359	2.5595
13.8985	2.5671
13.8614	2.5626
13.8244	2.5372
13.7876	2.5088
13.7511	2.5119
13.7147	2.5372
13.6785	2.5621
13.6425	2.6026
13.6067	2.671
13.5711	2.7321
13.5356	2.7947
13.5004	2.8678
13.4653	2.9339
13.4304	2.982
13.3957	3.0343
13.3612	3.0618
13.3269	3.0511
13.2927	3.0116
13.2587	2.9877
13.2249	2.9817
13.1912	2.9893
13.1577	2.9981
13.1244	3.0116
13.0913	3.0061
13.0583	2.982
13.0255	2.9349
12.9929	2.9117
12.9604	2.9152
12.9281	2.9503
12.8959	2.9997
12.8639	3.0488
12.8321	3.0831
12.8004	3.0919
12.7688	3.0547
12.7375	3.0059
12.7063	2.9583
12.6752	2.9228
12.6443	2.8991
12.6135	2.8944
12.5829	2.923
12.5524	2.9848
12.5221	3.0459
12.4919	3.0862
12.4619	3.0957
12.432	3.0592
12.4023	2.9777
12.3727	2.8906
12.3432	2.8299
12.3139	2.8082
12.2847	2.8181
12.2557	2.8506
12.2268	2.8896
12.198	2.9306
12.1694	2.9649
12.1409	3.0085
12.1125	3.0594
12.0843	3.1186
12.0562	3.1714
12.0282	3.215
12.0003	3.2538
11.9726	3.3041
11.945	3.3521
11.9176	3.4139
11.8903	3.4843
11.8631	3.5489
11.836	3.6003
11.809	3.6548
11.7822	3.7235
11.7555	3.803
11.7289	3.8722
11.7024	3.9489
11.676	4.0282
11.6498	4.0957
11.6237	4.1445
11.5977	4.1954
11.5718	4.2643
11.546	4.3385
11.5203	4.4079
11.4948	4.4862
11.4694	4.5658
11.444	4.6518
11.4188	4.738
11.3937	4.8268
11.3688	4.9284
11.3439	5.0383
11.3191	5.1413
11.2944	5.2211
11.2699	5.2713
11.2455	5.3123
11.2211	5.3461
11.1969	5.361
11.1727	5.3639
11.1487	5.3693
11.1248	5.3783
11.101	5.3845
11.0773	5.3916
11.0536	5.4131
11.0301	5.4524
11.0067	5.496
10.9834	5.537
10.9602	5.5891
10.937	5.6545
10.914	5.7167
10.8911	5.7724
10.8682	5.838
10.8455	5.9173
10.8229	6.0097
10.8003	6.1136
10.7779	6.2413
10.7555	6.3891
10.7332	6.5439
10.7111	6.7076
10.689	6.8802
10.667	7.0476
10.6451	7.2089
10.6233	7.3673
10.6015	7.5277
10.5799	7.6835
10.5584	7.844
10.5369	8.0162
10.5155	8.1917
10.4942	8.3603
10.473	8.5277
10.4519	8.6919
10.4309	8.8432
10.4099	8.9827
10.3891	9.1314
10.3683	9.2886
10.3476	9.4501
10.327	9.6166
10.3065	9.79
10.286	9.9534
10.2656	10.1052
10.2454	10.2563
10.2251	10.4199
10.205	10.597
10.185	10.7796
10.165	10.9707
10.1451	11.1711
10.1253	11.3608
10.1056	11.5325
10.0859	11.6843
10.0663	11.8306
10.0468	11.953
10.0274	12.0371
10.008	12.1022
9.9887	12.1536
9.9695	12.1716
9.9504	12.1517
9.9313	12.1221
9.9123	12.0923
9.8934	12.0511
9.8746	12.0016
9.8558	11.9519
9.8371	11.8964
9.8185	11.8278
9.7999	11.7577
9.7814	11.7032
9.763	11.6606
9.7447	11.6331
9.7264	11.6144
9.7082	11.5926
9.69	11.5703
9.6719	11.5602
9.6539	11.5587
9.636	11.5429
9.6181	11.5173
9.6003	11.4879
9.5825	11.4493
9.5649	11.4027
9.5472	11.3589
9.5297	11.3236
9.5122	11.299
9.4948	11.2784
9.4774	11.2627
9.4601	11.2682
9.4429	11.2919
9.4257	11.3229
9.4086	11.3442
9.3916	11.3326
9.3746	11.2885
9.3577	11.1933
9.3408	11.0309
9.324	10.8135
9.3073	10.5715
9.2906	10.3211
9.274	10.0732
9.2574	9.8279
9.2409	9.605
9.2245	9.3935
9.2081	9.1875
9.1918	8.9893
9.1755	8.8062
9.1593	8.6289
9.1431	8.4522
9.127	8.2717
9.111	8.0991
9.095	7.9333
9.0791	7.7758
9.0632	7.6205
9.0474	7.4765
9.0316	7.3508
9.0159	7.2383
9.0003	7.1331
8.9847	7.0441
8.9691	6.9773
8.9536	6.919
8.9382	6.861
8.9228	6.8139
8.9075	6.7829
8.8922	6.7571
8.877	6.7215
8.8618	6.6943
8.8467	6.6739
8.8316	6.6443
8.8166	6.6034
8.8016	6.5631
8.7867	6.5266
8.7718	6.4999
8.757	6.4816
8.7422	6.4854
8.7275	6.503
8.7129	6.5091
8.6982	6.4755
8.6837	6.3893
8.6692	6.2365
8.6547	6.0471
8.6403	5.8775
8.6259	5.77
8.6116	5.7328
8.5973	5.7437
8.583	5.7684
8.5688	5.7764
8.5547	5.7473
8.5406	5.6826
8.5266	5.6083
8.5126	5.546
8.4986	5.4929
8.4847	5.4387
8.4708	5.3906
8.457	5.3646
8.4432	5.3497
8.4295	5.3331
8.4158	5.3073
8.4022	5.2784
8.3886	5.2514
8.375	5.2279
8.3615	5.2071
8.3481	5.1924
8.3347	5.1709
8.3213	5.1413
8.3079	5.0889
8.2946	5.012
8.2814	4.9248
8.2682	4.8386
8.255	4.7498
8.2419	4.6579
8.2288	4.567
8.2158	4.472
8.2028	4.3614
8.1898	4.2359
8.1769	4.0993
8.164	3.96
8.1512	3.8177
8.1384	3.6794
8.1256	3.5458
8.1129	3.4078
8.1002	3.2728
8.0876	3.1489
8.075	3.0348
8.0624	2.9327
8.0499	2.8399
8.0374	2.7641
8.025	2.6971
8.0126	2.6308
8.0002	2.5692
7.9879	2.5166
7.9756	2.4674
7.9634	2.4195
7.9512	2.3724
7.939	2.3274
7.9268	2.281
7.9147	2.2355
7.9027	2.1887
7.8906	2.1477
7.8786	2.1157
7.8667	2.0885
7.8548	2.0641
7.8429	2.0406
7.831	2.025
7.8192	2.0224
7.8075	2.025
7.7957	2.035
7.784	2.0459
7.7723	2.0463
7.7607	2.0423
7.7491	2.0397
7.7375	2.0335
7.726	2.026
7.7145	2.021
7.7031	2.0243
7.6916	2.0267
7.6802	2.0252
7.6689	2.0354
7.6575	2.0525
7.6462	2.0589
7.635	2.0612
7.6238	2.0577
7.6126	2.0544
7.6014	2.0506
7.5903	2.0475
7.5792	2.0584
7.5681	2.0776
7.5571	2.0975
7.5461	2.1133
7.5351	2.1226
7.5242	2.1309
7.5133	2.1408
7.5024	2.1524
7.4916	2.1707
7.4807	2.192
7.47	2.2059
7.4592	2.2116
7.4485	2.2206
7.4378	2.237
7.4272	2.2571
7.4165	2.2777
7.4059	2.2943
7.3954	2.3056
7.3848	2.3132
7.3743	2.3201
7.3639	2.3272
7.3534	2.3405
7.343	2.3589
7.3326	2.3793
7.3223	2.3961
7.3119	2.4091
7.3016	2.4181
7.2914	2.4262
7.2811	2.4352
7.2709	2.4503
7.2607	2.4735
7.2506	2.4944
7.2404	2.5095
7.2303	2.5266
7.2203	2.5486
7.2102	2.5825
7.2002	2.6208
7.1902	2.6585
7.1803	2.699
7.1703	2.7293
7.1604	2.7475
7.1506	2.7726
7.1407	2.8086
7.1309	2.8539
7.1211	2.9048
7.1113	2.9656
7.1016	3.0367
7.0919	3.1089
7.0822	3.1665
7.0725	3.2103
7.0629	3.2344
7.0533	3.246
7.0437	3.2574
7.0341	3.2664
7.0246	3.2804
7.0151	3.3043
7.0056	3.323
6.9962	3.332
6.9867	3.3254
6.9773	3.3223
6.9679	3.3277
6.9586	3.3384
6.9493	3.3514
6.94	3.372
6.9307	3.3931
6.9214	3.4123
6.9122	3.4251
6.903	3.4454
6.8938	3.467
6.8847	3.4926
6.8755	3.5082
6.8664	3.5155
6.8573	3.5177
6.8483	3.5143
6.8393	3.5091
6.8302	3.5153
6.8213	3.5302
6.8123	3.5556
6.8034	3.5795
6.7944	3.5996
6.7855	3.6178
6.7767	3.6311
6.7678	3.647
6.759	3.6721
6.7502	3.7024
6.7414	3.728
6.7327	3.7467
6.7239	3.7628
6.7152	3.7661
6.7065	3.764
6.6979	3.7666
6.6892	3.7862
6.6806	3.8165
6.672	3.8419
6.6634	3.8681
6.6549	3.8949
6.6464	3.9101
6.6378	3.9129
6.6294	3.9155
6.6209	3.9307
6.6124	3.9399
6.604	3.9378
6.5956	3.9449
6.5872	3.9565
6.5789	3.965
6.5705	3.9631
6.5622	3.9655
6.5539	3.9721
6.5456	3.9667
6.5374	3.9622
6.5292	3.969
6.5209	3.9728
6.5128	3.9676
6.5046	3.9593
6.4964	3.9529
6.4883	3.948
6.4802	3.939
6.4721	3.9285
6.464	3.9184
6.456	3.9053
6.448	3.8809
6.4399	3.8457
6.432	3.799
6.424	3.7493
6.416	3.6948
6.4081	3.6337
6.4002	3.5707
6.3923	3.512
6.3844	3.4528
6.3766	3.3924
6.3687	3.3263
6.3609	3.2647
6.3531	3.2089
6.3454	3.1582
6.3376	3.1108
6.3299	3.0715
6.3221	3.0391
6.3144	3.0121
6.3068	2.9787
6.2991	2.9415
6.2914	2.9098
6.2838	2.8797
6.2762	2.8529
6.2686	2.8406
6.2611	2.8378
6.2535	2.8394
6.246	2.838
6.2385	2.833
6.231	2.8231
6.2235	2.8034
6.216	2.7847
6.2086	2.7762
6.2011	2.7693
6.1937	2.7599
6.1863	2.7606
6.179	2.7733
6.1716	2.788
6.1643	2.8039
6.157	2.825
6.1496	2.8451
6.1424	2.8529
6.1351	2.8543
6.1278	2.8607
6.1206	2.8664
6.1134	2.8685
6.1062	2.8747
6.099	2.8882
6.0918	2.9003
6.0847	2.8982
6.0776	2.8925
6.0704	2.8844
6.0633	2.8783
6.0563	2.8761
6.0492	2.8918
6.0421	2.9228
6.0351	2.9498
6.0281	2.963
6.0211	2.9604
6.0141	2.9521
6.0071	2.9472
6.0002	2.9351
5.9932	2.9301
5.9863	2.9389
5.9794	2.9448
5.9725	2.9448
5.9657	2.9417
5.9588	2.9389
5.952	2.9363
5.9451	2.9325
5.9383	2.9386
5.9315	2.9566
5.9247	2.9697
5.918	2.9791
5.9112	2.9952
5.9045	3.0002
5.8978	2.9952
5.8911	2.9964
5.8844	3.0085
5.8777	3.026
5.8711	3.0433
5.8644	3.0663
5.8578	3.0978
5.8512	3.1134
5.8446	3.1146
5.838	3.1137
5.8314	3.117
5.8249	3.1241
5.8184	3.1397
5.8118	3.1646
5.8053	3.1935
5.7988	3.2176
5.7923	3.2318
5.7859	3.2318
5.7794	3.2309
5.773	3.2351
5.7666	3.2444
5.7602	3.2538
5.7538	3.2676
5.7474	3.2894
5.741	3.3055
5.7347	3.3081
5.7283	3.3133
5.722	3.3251
5.7157	3.3344
5.7094	3.3389
5.7031	3.3429
5.6969	3.3521
5.6906	3.3654
5.6844	3.3701
5.6782	3.3753
5.6719	3.385
5.6657	3.3884
5.6596	3.3794
5.6534	3.3647
5.6472	3.3576
5.6411	3.3611
5.6349	3.3609
5.6288	3.3701
5.6227	3.3869
5.6166	3.3976
5.6106	3.4038
5.6045	3.4056
5.5984	3.4038
5.5924	3.3978
5.5864	3.3917
5.5804	3.3907
5.5744	3.3921
5.5684	3.3983
5.5624	3.4163
5.5564	3.4364
5.5505	3.4575
5.5445	3.4807
5.5386	3.5084
5.5327	3.5394
5.5268	3.5707
5.5209	3.6015
5.5151	3.6373
5.5092	3.668
5.5033	3.6917
5.4975	3.7145
5.4917	3.7367
5.4859	3.7578
5.4801	3.7789
5.4743	3.8087
5.4685	3.8457
5.4628	3.876
5.457	3.9058
5.4513	3.9401
5.4455	3.9652
5.4398	3.9806
5.4341	3.9965
5.4284	4.0112
5.4228	4.0162
5.4171	4.0147
5.4114	4.0157
5.4058	4.0202
5.4002	4.0218
5.3945	4.0221
5.3889	4.0254
5.3833	4.0289
5.3778	4.0358
5.3722	4.0448
5.3666	4.0496
5.3611	4.0538
5.3555	4.0562
5.35	4.0545
5.3445	4.0559
5.339	4.0683
5.3335	4.0837
5.328	4.0957
5.3225	4.1061
5.3171	4.1232
5.3116	4.1438
5.3062	4.1672
5.3008	4.1942
5.2954	4.221
5.29	4.2449
5.2846	4.2672
5.2792	4.2892
5.2738	4.32
5.2684	4.3489
5.2631	4.3738
5.2578	4.4029
5.2524	4.428
5.2471	4.4581
5.2418	4.495
5.2365	4.5293
5.2312	4.5634
5.226	4.5971
5.2207	4.6267
5.2154	4.6572
5.2102	4.6828
5.205	4.7115
5.1998	4.742
5.1945	4.7614
5.1893	4.7756
5.1842	4.7955
5.179	4.8192
5.1738	4.8438
5.1686	4.8644
5.1635	4.8843
5.1584	4.9002
5.1532	4.9123
5.1481	4.9329
5.143	4.9594
5.1379	4.9899
5.1328	5.0177
5.1277	5.038
5.1227	5.0484
5.1176	5.0565
5.1126	5.0721
5.1075	5.0963
5.1025	5.1185
5.0975	5.1387
5.0925	5.1503
5.0875	5.1569
5.0825	5.1571
5.0775	5.1647
5.0726	5.182
5.0676	5.2071
5.0627	5.2355
5.0577	5.263
5.0528	5.2845
5.0479	5.2976
5.043	5.3082
5.038	5.3194
5.0332	5.3314
5.0283	5.3506
5.0234	5.3681
5.0185	5.3805
5.0137	5.3937
5.0088	5.4115
5.004	5.4344
4.9992	5.4555
4.9944	5.4768
4.9896	5.497
4.9848	5.5131
4.98	5.5372
4.9752	5.5772
4.9704	5.6253
4.9657	5.6729
4.9609	5.7163
4.9562	5.7508
4.9514	5.7719
4.9467	5.7923
4.942	5.8269
4.9373	5.8681
4.9326	5.905
4.9279	5.9436
4.9232	5.9893
4.9186	6.0371
4.9139	6.0911
4.9092	6.1601
4.9046	6.2389
4.9	6.3178
4.8953	6.3914
4.8907	6.461
4.8861	6.53
4.8815	6.5975
4.8769	6.6647
4.8723	6.7324
4.8678	6.7966
4.8632	6.8615
4.8586	6.9238
4.8541	6.987
4.8495	7.0569
4.845	7.1274
4.8405	7.1916
4.836	7.2577
4.8315	7.3254
4.827	7.3898
4.8225	7.454
4.818	7.5208
4.8135	7.589
4.809	7.6477
4.8046	7.6991
4.8001	7.7564
4.7957	7.8173
4.7913	7.876
4.7868	7.94
4.7824	8.0108
4.778	8.0844
4.7736	8.154
4.7692	8.2213
4.7648	8.2916
4.7605	8.3643
4.7561	8.4347
4.7517	8.5083
4.7474	8.5869
4.7431	8.6644
4.7387	8.7357
4.7344	8.8027
4.7301	8.8666
4.7258	8.9263
4.7215	8.9817
4.7172	9.0374
4.7129	9.0921
4.7086	9.1382
4.7043	9.1686
4.7	9.193
4.6958	9.2204
4.6915	9.2493
4.6873	9.2896
4.6831	9.3393
4.6788	9.3997
4.6746	9.4677
4.6704	9.5368
4.6662	9.6126
4.662	9.6957
4.6578	9.7817
4.6536	9.8736
4.6495	9.9647
4.6453	10.0547
4.6411	10.1454
4.637	10.2342
4.6328	10.3207
4.6287	10.4076
4.6246	10.4935
4.6205	10.5819
4.6163	10.674
4.6122	10.7659
4.6081	10.8575
4.604	10.9508
4.6	11.0501
4.5959	11.1533
4.5918	11.2516
4.5877	11.3484
4.5837	11.4453
4.5796	11.5351
4.5756	11.6224
4.5716	11.72
4.5675	11.8218
4.5635	11.9173
4.5595	12.0096
4.5555	12.1008
4.5515	12.1839
4.5475	12.2578
4.5435	12.3298
4.5395	12.4032
4.5356	12.4698
4.5316	12.5254
4.5276	12.5794
4.5237	12.627
4.5197	12.668
4.5158	12.6997
4.5119	12.7222
4.508	12.7431
4.504	12.7667
4.5001	12.7923
4.4962	12.8245
4.4923	12.8624
4.4884	12.906
4.4846	12.9474
4.4807	12.9832
4.4768	13.0159
4.473	13.0481
4.4691	13.0855
4.4652	13.1314
4.4614	13.1871
4.4576	13.2546
4.4537	13.3304
4.4499	13.4087
4.4461	13.4855
4.4423	13.5605
4.4385	13.6366
4.4347	13.7161
4.4309	13.8012
4.4271	13.8964
4.4233	13.9963
4.4196	14.1033
4.4158	14.2163
4.412	14.3349
4.4083	14.46
4.4045	14.5893
4.4008	14.7198
4.3971	14.8422
4.3934	14.9525
4.3896	15.0575
4.3859	15.1586
4.3822	15.2602
4.3785	15.3693
4.3748	15.483
4.3711	15.5908
4.3674	15.689
4.3638	15.7826
4.3601	15.8719
4.3564	15.9564
4.3528	16.0374
4.3491	16.1167
4.3455	16.1909
4.3418	16.256
4.3382	16.3199
4.3346	16.3805
4.331	16.4364
4.3273	16.4902
4.3237	16.5456
4.3201	16.6051
4.3165	16.6614
4.3129	16.7121
4.3094	16.7587
4.3058	16.7995
4.3022	16.8395
4.2986	16.8809
4.2951	16.9231
4.2915	16.9695
4.288	17.0157
4.2844	17.0633
4.2809	17.109
4.2774	17.1573
4.2738	17.2099
4.2703	17.2577
4.2668	17.3022
4.2633	17.351
4.2598	17.4043
4.2563	17.4618
4.2528	17.5166
4.2493	17.5651
4.2458	17.603
4.2424	17.6286
4.2389	17.6525
4.2354	17.6852
4.232	17.7216
4.2285	17.7626
4.2251	17.809
4.2216	17.8559
4.2182	17.9033
4.2148	17.9468
4.2113	17.9826
4.2079	18.0184
4.2045	18.052
4.2011	18.0788
4.1977	18.1041
4.1943	18.1325
4.1909	18.1616
4.1875	18.1905
4.1841	18.2208
4.1808	18.2495
4.1774	18.2765
4.174	18.3016
4.1707	18.3255
4.1673	18.3549
4.164	18.388
4.1606	18.4238
4.1573	18.4548
4.154	18.4757
4.1506	18.4967
4.1473	18.5114
4.144	18.5166
4.1407	18.5263
4.1374	18.5427
4.1341	18.5588
4.1308	18.5713
4.1275	18.5858
4.1242	18.6054
4.1209	18.617
4.1177	18.6192
4.1144	18.6213
4.1111	18.6213
4.1079	18.6173
4.1046	18.6156
4.1014	18.6137
4.0981	18.6121
4.0949	18.6069
4.0917	18.5976
4.0884	18.5879
4.0852	18.5716
4.082	18.546
4.0788	18.5159
4.0756	18.4768
4.0724	18.433
4.0692	18.3831
4.066	18.3329
4.0628	18.2786
4.0596	18.2171
4.0565	18.1496
4.0533	18.0724
4.0501	17.976
4.047	17.8642
4.0438	17.7356
4.0406	17.5957
4.0375	17.4462
4.0344	17.2928
4.0312	17.145
4.0281	17.0046
4.025	16.8757
4.0218	16.7592
4.0187	16.6446
4.0156	16.5236
4.0125	16.3993
4.0094	16.2629
4.0063	16.1077
4.0032	15.945
4.0001	15.7845
3.997	15.6244
3.994	15.4716
3.9909	15.3355
3.9878	15.2275
3.9847	15.1505
3.9817	15.098
3.9786	15.0776
3.9756	15.0847
3.9725	15.1131
3.9695	15.1621
3.9665	15.2254
3.9634	15.3071
3.9604	15.4032
3.9574	15.5046
3.9544	15.6187
3.9513	15.7454
3.9483	15.8873
3.9453	16.0372
3.9423	16.1819
3.9393	16.3237
3.9363	16.4412
3.9333	16.5269
3.9304	16.5934
3.9274	16.647
3.9244	16.6984
3.9214	16.7521
3.9185	16.8042
3.9155	16.8518
3.9126	16.888
3.9096	16.9179
3.9067	16.9413
3.9037	16.9636
3.9008	16.9856
3.8979	17.0057
3.8949	17.0259
3.892	17.0436
3.8891	17.0635
3.8862	17.0829
3.8833	17.099
3.8804	17.1189
3.8775	17.1455
3.8746	17.1751
3.8717	17.2025
3.8688	17.2295
3.8659	17.2617
3.863	17.2942
3.8601	17.3214
3.8573	17.3404
3.8544	17.3584
3.8515	17.3754
3.8487	17.3825
3.8458	17.3844
3.843	17.3941
3.8401	17.415
3.8373	17.4363
3.8344	17.4562
3.8316	17.486
3.8288	17.526
3.8259	17.5715
3.8231	17.62
3.8203	17.6695
3.8175	17.7254
3.8147	17.7832
3.8119	17.8422
3.8091	17.9135
3.8063	17.9973
3.8035	18.0844
3.8007	18.1718
3.7979	18.2535
3.7951	18.3407
3.7924	18.4316
3.7896	18.5147
3.7868	18.5988
3.7841	18.685
3.7813	18.762
3.7785	18.828
3.7758	18.8844
3.773	18.9315
3.7703	18.968
3.7676	18.9981
3.7648	19.035
3.7621	19.08
3.7594	19.1297
3.7566	19.1743
3.7539	19.2039
3.7512	19.2122
3.7485	19.2046
3.7458	19.1908
3.7431	19.1818
3.7404	19.1773
3.7377	19.1781
3.735	19.1811
3.7323	19.1823
3.7296	19.1823
3.7269	19.1795
3.7242	19.1788
3.7216	19.1844
3.7189	19.192
3.7162	19.1961
3.7136	19.1968
3.7109	19.1972
3.7083	19.1951
3.7056	19.1889
3.703	19.1892
3.7003	19.1944
3.6977	19.1984
3.695	19.2003
3.6924	19.1989
3.6898	19.1953
3.6872	19.1923
3.6845	19.1901
3.6819	19.1847
3.6793	19.1785
3.6767	19.1771
3.6741	19.1745
3.6715	19.1603
3.6689	19.1409
3.6663	19.1288
3.6637	19.1222
3.6611	19.1063
3.6585	19.0919
3.656	19.0876
3.6534	19.0772
3.6508	19.0561
3.6482	19.0303
3.6457	19.0102
3.6431	18.994
3.6406	18.9697
3.638	18.9438
3.6355	18.9221
3.6329	18.8993
3.6304	18.873
3.6278	18.8441
3.6253	18.8198
3.6227	18.7961
3.6202	18.7662
3.6177	18.7338
3.6152	18.7011
3.6127	18.6653
3.6101	18.632
3.6076	18.6026
3.6051	18.5709
3.6026	18.5294
3.6001	18.4873
3.5976	18.4468
3.5951	18.4006
3.5926	18.3497
3.5901	18.2933
3.5876	18.2315
3.5852	18.1645
3.5827	18.0878
3.5802	18.0094
3.5777	17.9336
3.5753	17.8614
3.5728	17.7953
3.5704	17.7221
3.5679	17.6522
3.5654	17.5897
3.563	17.522
3.5605	17.4434
3.5581	17.3681
3.5557	17.3077
3.5532	17.2506
3.5508	17.1876
3.5484	17.1189
3.5459	17.0481
3.5435	16.9719
3.5411	16.8852
3.5387	16.7947
3.5363	16.7036
3.5338	16.6008
3.5314	16.4807
3.529	16.3401
3.5266	16.1935
3.5242	16.0521
3.5218	15.9157
3.5195	15.785
3.5171	15.6632
3.5147	15.551
3.5123	15.4477
3.5099	15.3476
3.5075	15.2538
3.5052	15.1628
3.5028	15.0719
3.5004	14.9836
3.4981	14.9033
3.4957	14.8396
3.4934	14.783
3.491	14.729
3.4887	14.6707
3.4863	14.5969
3.484	14.5133
3.4816	14.4318
3.4793	14.3667
3.477	14.3243
3.4746	14.3018
3.4723	14.3094
3.47	14.3366
3.4677	14.3769
3.4653	14.419
3.463	14.4555
3.4607	14.4742
3.4584	14.4732
3.4561	14.4687
3.4538	14.4619
3.4515	14.4533
3.4492	14.4503
3.4469	14.4403
3.4446	14.4261
3.4423	14.4119
3.44	14.401
3.4378	14.4048
3.4355	14.4105
3.4332	14.4138
3.4309	14.4083
3.4287	14.3906
3.4264	14.3667
3.4241	14.3361
3.4219	14.2989
3.4196	14.2655
3.4174	14.2331
3.4151	14.2059
3.4129	14.1838
3.4106	14.1658
3.4084	14.1559
3.4061	14.1434
3.4039	14.1308
3.4017	14.1104
3.3994	14.0754
3.3972	14.0439
3.395	14.0223
3.3928	14.0003
3.3906	13.9778
3.3883	13.9556
3.3861	13.9326
3.3839	13.8961
3.3817	13.8398
3.3795	13.7867
3.3773	13.7396
3.3751	13.6993
3.3729	13.6655
3.3707	13.6389
3.3685	13.6167
3.3663	13.592
3.3641	13.5568
3.362	13.5184
3.3598	13.472
3.3576	13.4251
3.3554	13.3822
3.3533	13.3415
3.3511	13.3098
3.3489	13.2982
3.3468	13.3138
3.3446	13.3498
3.3425	13.3964
3.3403	13.4528
3.3382	13.5153
3.336	13.5662
3.3339	13.5984
3.3317	13.6252
3.3296	13.6439
3.3274	13.6432
3.3253	13.6377
3.3232	13.6304
3.321	13.6188
3.3189	13.6013
3.3168	13.5845
3.3147	13.5835
3.3126	13.5859
3.3104	13.5925
3.3083	13.6096
3.3062	13.624
3.3041	13.6285
3.302	13.625
3.2999	13.6198
3.2978	13.6122
3.2957	13.5946
3.2936	13.5788
3.2915	13.5615
3.2894	13.5373
3.2874	13.5056
3.2853	13.4698
3.2832	13.4355
3.2811	13.4031
3.279	13.3656
3.277	13.3315
3.2749	13.297
3.2728	13.2596
3.2708	13.2153
3.2687	13.1726
3.2666	13.135
3.2646	13.1007
3.2625	13.0654
3.2605	13.0296
3.2584	12.9993
3.2564	12.9666
3.2543	12.9119
3.2523	12.8537
3.2503	12.8008
3.2482	12.7518
3.2462	12.7113
3.2442	12.6711
3.2421	12.6398
3.2401	12.5986
3.2381	12.5358
3.2361	12.4731
3.234	12.4122
3.232	12.3533
3.23	12.3012
3.228	12.2533
3.226	12.2121
3.224	12.1614
3.222	12.0958
3.22	12.0265
3.218	11.9547
3.216	11.8848
3.214	11.823
3.212	11.7792
3.21	11.738
3.208	11.684
3.206	11.6149
3.204	11.5431
3.2021	11.4723
3.2001	11.4098
3.1981	11.3582
3.1961	11.3096
3.1942	11.2521
3.1922	11.1843
3.1902	11.1095
3.1883	11.0389
3.1863	10.9771
3.1844	10.929
3.1824	10.8902
3.1805	10.8473
3.1785	10.7945
3.1766	10.7382
3.1746	10.6745
3.1727	10.6077
3.1707	10.5468
3.1688	10.4907
3.1669	10.4265
3.1649	10.3576
3.163	10.2828
3.1611	10.2113
3.1591	10.1431
3.1572	10.0744
3.1553	10.0183
3.1534	9.9683
3.1515	9.9029
3.1495	9.8387
3.1476	9.7755
3.1457	9.7158
3.1438	9.6604
3.1419	9.5972
3.14	9.5356
3.1381	9.4724
3.1362	9.3973
3.1343	9.3218
3.1324	9.2491
3.1305	9.184
3.1286	9.1184
3.1268	9.0528
3.1249	9.0023
3.123	8.9583
3.1211	8.9102
3.1192	8.8631
3.1174	8.8072
3.1155	8.7352
3.1136	8.6532
3.1117	8.5805
3.1099	8.5147
3.108	8.4581
3.1061	8.41
3.1043	8.37
3.1024	8.3215
3.1006	8.2672
3.0987	8.2154
3.0969	8.1588
3.095	8.0953
3.0932	8.0366
3.0913	7.9743
3.0895	7.9139
3.0876	7.8559
3.0858	7.8064
3.084	7.7654
3.0821	7.7183
3.0803	7.6705
3.0785	7.6328
3.0766	7.594
3.0748	7.5454
3.073	7.4881
3.0712	7.4299
3.0694	7.3799
3.0675	7.3235
3.0657	7.2721
3.0639	7.2442
3.0621	7.2186
3.0603	7.1831
3.0585	7.1274
3.0567	7.0699
3.0549	7.0292
3.0531	6.9818
3.0513	6.938
3.0495	6.9046
3.0477	6.8615
3.0459	6.8224
3.0441	6.7753
3.0423	6.7265
3.0406	6.6896
3.0388	6.6441
3.037	6.5915
3.0352	6.5387
3.0334	6.4871
3.0317	6.4433
3.0299	6.4087
3.0281	6.3772
3.0264	6.3483
3.0246	6.3272
3.0228	6.2995
3.0211	6.2718
3.0193	6.2444
3.0176	6.1984
3.0158	6.1541
3.014	6.12
3.0123	6.0935
3.0105	6.0724
3.0088	6.0516
3.007	6.0371
3.0053	6.0094
3.0036	5.9649
3.0018	5.9173
3.0001	5.8811
2.9984	5.8586
2.9966	5.8321
2.9949	5.8143
2.9932	5.8065
2.9914	5.7816
2.9897	5.7489
2.988	5.7118
2.9863	5.6739
2.9845	5.6455
2.9828	5.6194
2.9811	5.5976
2.9794	5.5896
2.9777	5.5775
2.976	5.5611
2.9743	5.537
2.9726	5.5235
2.9709	5.51
2.9692	5.4797
2.9675	5.4498
2.9658	5.4359
2.9641	5.4316
2.9624	5.4174
2.9607	5.4003
2.959	5.4089
2.9573	5.4037
2.9556	5.3823
2.9539	5.3655
2.9523	5.3482
2.9506	5.3404
2.9489	5.3286
2.9472	5.3269
2.9455	5.34
2.9439	5.3392
2.9422	5.3378
2.9405	5.331
2.9389	5.307
2.9372	5.2935
2.9355	5.2916
2.9339	5.3004
2.9322	5.3127
2.9306	5.3018
2.9289	5.281
2.9272	5.2654
2.9256	5.2514
2.9239	5.2599
2.9223	5.2864
2.9207	5.3213
2.919	5.3568
2.9174	5.3698
2.9157	5.366
2.9141	5.3715
2.9124	5.3776
2.9108	5.371
2.9092	5.3584
2.9075	5.3506
2.9059	5.3456
2.9043	5.3388
2.9027	5.3447
2.901	5.3689
2.8994	5.3994
2.8978	5.4266
2.8962	5.4543
2.8946	5.4771
2.8929	5.4944
2.8913	5.5057
2.8897	5.5242
2.8881	5.5434
2.8865	5.5645
2.8849	5.5903
2.8833	5.6095
2.8817	5.6163
2.8801	5.623
2.8785	5.632
2.8769	5.6502
2.8753	5.6779
2.8737	5.703
2.8721	5.7234
2.8705	5.7385
2.8689	5.7497
2.8673	5.7627
2.8658	5.7781
2.8642	5.7913
2.8626	5.8084
2.861	5.8141
2.8594	5.8074
2.8579	5.802
2.8563	5.8036
2.8547	5.8081
2.8531	5.8162
2.8516	5.8212
2.85	5.8245
2.8484	5.8188
2.8469	5.8034
2.8453	5.7968
2.8437	5.7875
2.8422	5.7748
2.8406	5.771
2.8391	5.7731
2.8375	5.7724
2.836	5.7624
2.8344	5.7523
2.8329	5.7383
2.8313	5.7099
2.8298	5.6886
2.8282	5.6826
2.8267	5.6845
2.8252	5.6881
2.8236	5.6774
2.8221	5.6661
2.8205	5.6582
2.819	5.6383
2.8175	5.6253
2.8159	5.6258
2.8144	5.6244
2.8129	5.6208
2.8114	5.6099
2.8098	5.6135
2.8083	5.6241
2.8068	5.6132
2.8053	5.5981
2.8038	5.5969
2.8022	5.5941
2.8007	5.591
2.7992	5.591
2.7977	5.6035
2.7962	5.6097
2.7947	5.6026
2.7932	5.5929
2.7917	5.577
2.7902	5.5533
2.7887	5.5296
2.7872	5.5024
2.7857	5.4778
2.7842	5.4508
2.7827	5.4167
2.7812	5.3734
2.7797	5.3224
2.7782	5.2874
2.7767	5.2673
2.7752	5.2483
2.7738	5.2443
2.7723	5.2379
2.7708	5.2092
2.7693	5.156
2.7678	5.0885
2.7664	5.0243
2.7649	4.9568
2.7634	4.8886
2.7619	4.8445
2.7605	4.8197
2.759	4.8055
2.7575	4.8095
2.7561	4.8201
2.7546	4.8336
2.7531	4.8443
2.7517	4.8587
2.7502	4.8841
2.7488	4.9198
2.7473	4.9786
2.7458	5.0626
2.7444	5.1503
2.7429	5.2291
2.7415	5.3113
2.74	5.4027
2.7386	5.4922
2.7371	5.5737
2.7357	5.6653
2.7343	5.765
2.7328	5.8711
2.7314	5.9846
2.7299	6.1129
2.7285	6.2562
2.7271	6.4089
2.7256	6.5693
2.7242	6.7355
2.7228	6.9179
2.7213	7.1372
2.7199	7.3988
2.7185	7.6941
2.7171	8.0304
2.7156	8.4001
2.7142	8.7911
2.7128	9.183
2.7114	9.5695
2.71	9.9541
2.7085	10.3342
2.7071	10.7114
2.7057	11.0925
2.7043	11.4733
2.7029	11.8588
2.7015	12.2424
2.7001	12.6225
2.6987	13.004
2.6973	13.3974
2.6959	13.8156
2.6945	14.2696
2.6931	14.7621
2.6917	15.2827
2.6903	15.8103
2.6889	16.3344
2.6875	16.8179
2.6861	17.24
2.6847	17.6096
2.6833	17.9272
2.6819	18.1891
2.6805	18.3921
2.6791	18.551
2.6778	18.6841
2.6764	18.7845
2.675	18.8446
2.6736	18.8858
2.6722	18.9213
2.6709	18.9507
2.6695	18.972
2.6681	19.0075
2.6667	19.0765
2.6654	19.1773
2.664	19.2839
2.6626	19.3862
2.6613	19.4961
2.6599	19.5941
2.6585	19.6718
2.6572	19.7431
2.6558	19.8231
2.6545	19.9131
2.6531	20.0107
2.6517	20.1028
2.6504	20.1907
2.649	20.2629
2.6477	20.3214
2.6463	20.3728
2.645	20.4216
2.6436	20.464
2.6423	20.5054
2.6409	20.5433
2.6396	20.5734
2.6382	20.5862
2.6369	20.5982
2.6356	20.6098
2.6342	20.6013
2.6329	20.5855
2.6315	20.5748
2.6302	20.5689
2.6289	20.571
2.6275	20.5845
2.6262	20.6193
2.6249	20.6449
2.6236	20.6432
2.6222	20.6482
2.6209	20.6615
2.6196	20.6804
2.6183	20.7178
2.6169	20.778
2.6156	20.8405
2.6143	20.8782
2.613	20.9025
2.6117	20.9376
2.6103	20.9667
2.609	20.9852
2.6077	21.0143
2.6064	21.0543
2.6051	21.0927
2.6038	21.1389
2.6025	21.2033
2.6012	21.285
2.5999	21.3385
2.5986	21.3447
2.5973	21.3452
2.596	21.3624
2.5947	21.3984
2.5934	21.4418
2.5921	21.4939
2.5908	21.5607
2.5895	21.6175
2.5882	21.6308
2.5869	21.6201
2.5856	21.6192
2.5843	21.6187
2.583	21.6021
2.5817	21.5914
2.5805	21.595
2.5792	21.6116
2.5779	21.6154
2.5766	21.6078
2.5753	21.6075
2.5741	21.6014
2.5728	21.6007
2.5715	21.6012
2.5702	21.5839
2.569	21.5654
2.5677	21.5502
2.5664	21.5301
2.5651	21.5173
2.5639	21.5015
2.5626	21.4943
2.5613	21.4979
2.5601	21.4953
2.5588	21.497
2.5575	21.5043
2.5563	21.5048
2.555	21.5033
2.5538	21.4955
2.5525	21.4958
2.5513	21.5062
2.55	21.5121
2.5487	21.5192
2.5475	21.5211
2.5462	21.515
2.545	21.4972
2.5437	21.4756
2.5425	21.4678
2.5413	21.4647
2.54	21.4688
2.5388	21.4764
2.5375	21.4721
2.5363	21.4629
2.535	21.4456
2.5338	21.433
2.5326	21.4318
2.5313	21.4351
2.5301	21.4486
2.5289	21.4647
2.5276	21.4728
2.5264	21.4756
2.5252	21.4839
2.5239	21.5005
2.5227	21.5161
2.5215	21.537
2.5202	21.5602
2.519	21.5758
2.5178	21.5858
2.5166	21.5936
2.5154	21.6002
2.5141	21.5945
2.5129	21.5872
2.5117	21.6007
2.5105	21.6263
2.5093	21.6478
2.5081	21.6729
2.5068	21.6926
2.5056	21.6942
2.5044	21.6741
2.5032	21.654
2.502	21.6561
2.5008	21.666
2.4996	21.6734
2.4984	21.6961
2.4972	21.7293
2.496	21.7522
2.4948	21.7679
2.4936	21.7863
2.4924	21.8043
2.4912	21.8093
2.49	21.8164
2.4888	21.8455
2.4876	21.896
2.4864	21.9381
2.4852	21.9744
2.484	22.0002
2.4828	22.0172
2.4816	22.0421
2.4805	22.0819
2.4793	22.1309
2.4781	22.1783
2.4769	22.1991
2.4757	22.2143
2.4745	22.2214
2.4734	22.2306
2.4722	22.2659
2.471	22.313
2.4698	22.349
2.4686	22.3755
2.4675	22.3952
2.4663	22.421
2.4651	22.4423
2.464	22.4591
2.4628	22.4802
2.4616	22.4883
2.4604	22.4823
2.4593	22.476
2.4581	22.466
2.4569	22.4582
2.4558	22.4565
2.4546	22.4639
2.4535	22.47
2.4523	22.4655
2.4511	22.4653
2.45	22.4677
2.4488	22.4606
2.4477	22.4527
2.4465	22.4397
2.4454	22.4239
2.4442	22.398
2.4431	22.3639
2.4419	22.3298
2.4408	22.2974
2.4396	22.2657
2.4385	22.2375
2.4373	22.2121
2.4362	22.1979
2.435	22.1842
2.4339	22.1643
2.4327	22.1425
2.4316	22.1269
2.4305	22.1101
2.4293	22.0925
2.4282	22.0869
2.427	22.094
2.4259	22.0985
2.4248	22.085
2.4236	22.0729
2.4225	22.076
2.4214	22.0727
2.4202	22.0565
2.4191	22.0336
2.418	22.0111
2.4169	21.9876
2.4157	21.9512
2.4146	21.9152
2.4135	21.8934
2.4124	21.8721
2.4112	21.8455
2.4101	21.8143
2.409	21.7875
2.4079	21.7605
2.4068	21.7364
2.4056	21.7162
2.4045	21.7032
2.4034	21.6921
2.4023	21.6888
2.4012	21.6795
2.4001	21.6556
2.399	21.6253
2.3979	21.608
2.3967	21.6007
2.3956	21.5853
2.3945	21.5744
2.3934	21.5751
2.3923	21.5599
2.3912	21.5197
2.3901	21.4754
2.389	21.4347
2.3879	21.3864
2.3868	21.3269
2.3857	21.2831
2.3846	21.249
2.3835	21.1945
2.3824	21.1199
2.3813	21.039
2.3802	20.9525
2.3791	20.8599
2.3781	20.7642
2.377	20.6643
2.3759	20.5608
2.3748	20.4543
2.3737	20.3392
2.3726	20.2096
2.3715	20.0607
2.3704	19.9003
2.3694	19.7381
2.3683	19.5641
2.3672	19.3952
2.3661	19.2316
2.365	19.0608
2.364	18.8894
2.3629	18.7165
2.3618	18.5477
2.3607	18.3959
2.3597	18.2514
2.3586	18.1214
2.3575	17.9933
2.3564	17.8564
2.3554	17.7342
2.3543	17.6234
2.3532	17.5196
2.3522	17.4296
2.3511	17.3522
2.35	17.2831
2.349	17.2231
2.3479	17.1736
2.3468	17.1419
2.3458	17.1305
2.3447	17.1329
2.3436	17.1424
2.3426	17.1564
2.3415	17.1905
2.3405	17.2454
2.3394	17.3247
2.3384	17.41
2.3373	17.4955
2.3363	17.5758
2.3352	17.644
2.3342	17.7183
2.3331	17.8197
2.3321	17.9208
2.331	18.0169
2.33	18.1081
2.3289	18.1893
2.3279	18.2668
2.3268	18.3378
2.3258	18.4131
2.3247	18.4934
2.3237	18.5706
2.3226	18.6431
2.3216	18.7111
2.3206	18.7722
2.3195	18.8361
2.3185	18.9033
2.3175	18.9699
2.3164	19.0371
2.3154	19.1054
2.3144	19.1837
2.3133	19.2664
2.3123	19.3604
2.3113	19.4805
2.3102	19.6143
2.3092	19.7623
2.3082	19.9193
2.3071	20.0645
2.3061	20.1997
2.3051	20.3358
2.3041	20.476
2.303	20.6132
2.302	20.7301
2.301	20.8504
2.3	20.9831
2.299	21.1235
2.2979	21.2753
2.2969	21.4572
2.2959	21.662
2.2949	21.868
2.2939	22.0589
2.2929	22.2408
2.2918	22.4239
2.2908	22.6067
2.2898	22.7959
2.2888	22.9927
2.2878	23.1866
2.2868	23.3692
2.2858	23.5411
2.2848	23.6944
2.2838	23.8334
2.2828	23.9579
2.2818	24.069
2.2808	24.164
2.2798	24.2319
2.2787	24.2748
2.2777	24.3025
2.2767	24.3018
2.2757	24.2689
2.2747	24.218
2.2738	24.1571
2.2728	24.091
2.2718	24.0195
2.2708	23.9381
2.2698	23.8447
2.2688	23.7337
2.2678	23.6153
2.2668	23.513
2.2658	23.4216
2.2648	23.3261
2.2638	23.2347
2.2628	23.1362
2.2618	23.0247
2.2609	22.9093
2.2599	22.816
2.2589	22.7597
2.2579	22.7322
2.2569	22.7258
2.2559	22.7582
2.255	22.8269
2.254	22.9271
2.253	23.0455
2.252	23.1762
2.251	23.3249
2.2501	23.4926
2.2491	23.6693
2.2481	23.8703
2.2471	24.1064
2.2462	24.3655
2.2452	24.6504
2.2442	24.9481
2.2433	25.2439
2.2423	25.5273
2.2413	25.7862
2.2403	26.0263
2.2394	26.251
2.2384	26.4455
2.2374	26.6318
2.2365	26.8083
2.2355	26.9679
2.2345	27.1138
2.2336	27.2319
2.2326	27.3323
2.2317	27.441
2.2307	27.5469
2.2297	27.6381
2.2288	27.7269
2.2278	27.8071
2.2269	27.8709
2.2259	27.9047
2.225	27.9362
2.224	27.9687
2.2231	27.9928
2.2221	28.0075
2.2211	28.0198
2.2202	28.0191
2.2192	28.0025
2.2183	27.9651
2.2173	27.9007
2.2164	27.8147
2.2155	27.7262
2.2145	27.6409
2.2136	27.5438
2.2126	27.4403
2.2117	27.3174
2.2107	27.1756
2.2098	27.0245
2.2088	26.8945
2.2079	26.7858
2.207	26.6936
2.206	26.6112
2.2051	26.5501
2.2041	26.4945
2.2032	26.4601
2.2023	26.454
2.2013	26.4677
2.2004	26.4807
2.1995	26.499
2.1985	26.5257
2.1976	26.5653
2.1967	26.6108
2.1957	26.664
2.1948	26.7168
2.1939	26.7708
2.193	26.8083
2.192	26.863
2.1911	26.9454
2.1902	27.0482
2.1893	27.1632
2.1883	27.2892
2.1874	27.4171
2.1865	27.5448
2.1856	27.6672
2.1846	27.791
2.1837	27.9158
2.1828	28.0459
2.1819	28.1832
2.181	28.3326
2.18	28.4828
2.1791	28.6253
2.1782	28.7776
2.1773	28.9315
2.1764	29.0831
2.1755	29.2235
2.1746	29.3512
2.1736	29.475
2.1727	29.5885
2.1718	29.6832
2.1709	29.7891
2.17	29.8862
2.1691	29.9598
2.1682	30.0207
2.1673	30.0867
2.1664	30.1628
2.1655	30.2369
2.1646	30.3119
2.1637	30.3955
2.1628	30.464
2.1619	30.5305
2.161	30.6103
2.1601	30.6909
2.1592	30.7465
2.1583	30.7787
2.1574	30.8157
2.1565	30.845
2.1556	30.8625
2.1547	30.8789
2.1538	30.9104
2.1529	30.9345
2.152	30.9442
2.1511	30.9675
2.1502	31.0108
2.1493	31.0501
2.1484	31.0712
2.1475	31.0965
2.1466	31.1325
2.1458	31.1455
2.1449	31.1557
2.144	31.1761
2.1431	31.1901
2.1422	31.1965
2.1413	31.1898
2.1404	31.2005
2.1396	31.2329
2.1387	31.2772
2.1378	31.3421
2.1369	31.3904
2.136	31.4072
2.1352	31.3977
2.1343	31.3809
2.1334	31.3696
2.1325	31.3724
2.1316	31.389
2.1308	31.4124
2.1299	31.4297
2.129	31.4366
2.1281	31.4439
2.1273	31.4712
2.1264	31.4941
2.1255	31.5048
2.1247	31.5218
2.1238	31.5505
2.1229	31.5803
2.122	31.6106
2.1212	31.6357
2.1203	31.6554
2.1194	31.6604
2.1186	31.6613
2.1177	31.6729
2.1168	31.6964
2.116	31.7163
2.1151	31.7388
2.1143	31.7575
2.1134	31.7705
2.1125	31.7918
2.1117	31.8252
2.1108	31.8714
2.11	31.9209
2.1091	31.9495
2.1082	31.9531
2.1074	31.9455
2.1065	31.9415
2.1057	31.9642
2.1048	31.9919
2.104	32.0218
2.1031	32.049
2.1023	32.067
2.1014	32.0731
2.1005	32.0878
2.0997	32.125
2.0988	32.1688
2.098	32.2062
2.0971	32.2455
2.0963	32.2782
2.0955	32.3052
2.0946	32.305
2.0938	32.2974
2.0929	32.2998
2.0921	32.2958
2.0912	32.2993
2.0904	32.3128
2.0895	32.3306
2.0887	32.3521
2.0879	32.3597
2.087	32.3625
2.0862	32.3616
2.0853	32.3365
2.0845	32.3
2.0837	32.2939
2.0828	32.3242
2.082	32.3573
2.0812	32.5072
2.0803	32.4833
2.0795	32.4241
2.076	32.4882
2.072	32.6515
2.068	32.6615
2.064	32.6197
2.06	32.5586
2.056	32.5834
2.052	32.4948
2.048	32.4335
2.044	32.2573
2.04	32.0311
2.036	31.8637
2.032	31.6453
2.028	31.6135
2.024	31.4394
2.02	31.4074
2.016	31.335
2.012	31.2976
2.008	30.9474
2.004	30.9434
2	30.7862
1.996	30.6647
1.992	30.7271
1.988	30.7719
1.984	30.606
1.98	30.6529
1.976	30.607
1.972	30.8313
1.968	30.9435
1.964	31.0846
1.96	31.0936
1.956	31.0908
1.952	31.1063
1.948	31.2031
1.944	31.2099
1.94	31.2573
1.936	31.3204
1.932	31.4371
1.928	31.4098
1.924	31.3354
1.92	31.3814
1.916	31.5508
1.912	31.5469
1.908	31.4531
1.904	31.331
1.9	31.3682
1.896	31.4198
1.892	31.1813
1.888	31.1079
1.884	31.1507
1.88	31.2222
1.876	31.0822
1.872	31.2448
1.868	31.1888
1.864	31.1168
1.86	31.2129
1.856	31.1953
1.852	31.384
1.848	31.2843
1.844	31.1883
1.84	31.4066
1.836	31.28
1.832	31.4313
1.828	31.3704
1.824	31.1285
1.82	31.0694
1.816	31.0453
1.812	30.9843
1.808	31.0013
1.804	30.8975
1.8	30.9417
1.796	31.0196
1.792	30.8681
1.788	30.8363
1.784	30.6352
1.78	30.59
1.776	30.5317
1.772	30.4265
1.768	30.4023
1.764	30.3121
1.76	30.2753
1.756	30.1647
1.752	30.0591
1.748	30.1125
1.744	29.8509
1.74	29.7581
1.736	29.5961
1.732	29.5284
1.728	29.4718
1.724	29.3971
1.72	29.276
1.716	29.3073
1.712	29.271
1.708	28.9172
1.704	28.9442
1.7	28.7327
1.696	28.6484
1.692	28.5306
1.688	28.4371
1.684	28.4092
1.68	28.3593
1.676	28.1383
1.672	27.7921
1.668	27.6466
1.664	27.6972
1.66	27.5869
1.656	27.4333
1.652	27.4382
1.648	27.2297
1.644	27.2442
1.64	26.9599
1.636	27.0371
1.632	26.8497
1.628	26.6467
1.624	26.3997
1.62	26.2598
1.616	26.1426
1.612	25.9821
1.608	25.8717
1.604	25.5891
1.6	25.577
1.596	25.3251
1.592	25.1994
1.588	25.0062
1.584	24.9522
1.58	24.8054
1.576	24.6309
1.572	24.504
1.568	24.4341
1.564	24.2781
1.56	24.2248
1.556	24.0727
1.552	23.8885
1.548	23.7594
1.544	23.6196
1.54	23.346
1.536	23.2078
1.532	23.172
1.528	23.2181
1.524	23.1369
1.52	22.9999
1.516	22.9289
1.512	22.8101
1.508	22.686
1.504	22.6204
1.5	22.5293
1.496	22.0932
1.492	22.0738
1.488	22.0803
1.484	22.0174
1.48	21.8375
1.476	21.6951
1.472	21.6959
1.468	21.6643
1.464	21.4248
1.46	21.305
1.456	21.1162
1.452	21.0118
1.448	20.7129
1.444	20.5981
1.44	20.4645
1.436	20.2769
1.432	20.1948
1.428	20.1129
1.424	19.8735
1.42	19.4899
1.416	19.1305
1.412	18.4238
1.408	17.6139
1.404	17.2364
1.4	16.9167
1.396	17.2508
1.392	17.5148
1.388	17.8119
1.384	17.9262
1.38	18.1411
1.376	18.2328
1.372	18.3656
1.368	18.2546
1.364	18.0373
1.36	17.9974
1.356	17.8453
1.352	17.8208
1.348	17.6824
1.344	17.633
1.34	17.5192
1.336	17.3586
1.332	17.1685
1.328	16.9277
1.324	16.7863
1.32	16.7307
1.316	16.5738
1.312	16.4709
1.308	16.335
1.304	16.303
1.3	16.2606
1.296	16.0229
1.292	15.9036
1.288	15.8178
1.284	15.7491
1.28	15.4771
1.276	15.4085
1.272	15.2713
1.268	15.17
1.264	15.1395
1.26	15.0051
1.256	14.968
1.252	14.7598
1.248	14.7339
1.244	14.6347
1.24	14.579
1.236	14.5666
1.232	14.4157
1.228	14.3518
1.224	14.2368
1.22	14.0759
1.216	14.0216
1.212	13.9903
1.208	14.0162
1.204	13.8752
1.2	13.9508
1.196	13.8353
1.192	13.778
1.188	13.7708
1.184	13.6923
1.18	13.614
1.176	13.5783
1.172	13.4318
1.168	13.2893
1.164	13.2772
1.16	13.0748
1.156	13.0848
1.152	13.0128
1.148	12.9731
1.144	12.8192
1.14	12.7384
1.136	12.8065
1.132	12.7659
1.128	12.5712
1.124	12.6437
1.12	12.5959
1.116	12.5442
1.112	12.5048
1.108	12.535
1.104	12.4743
1.1	12.4895
1.096	12.494
1.092	12.3138
1.088	12.4637
1.084	12.4668
1.08	12.5843
1.076	12.4455
1.072	12.388
1.068	12.4274
1.064	12.4677
1.06	12.3702
1.056	12.3523
1.052	12.3542
1.048	12.4332
1.044	12.3821
1.04	12.4061
1.036	12.436
1.032	12.463
1.028	12.5395
1.024	12.4542
1.02	12.4639
1.016	12.4757
1.012	12.3049
1.008	12.3008
1.004	12.3371
1	12.2912
0.996	12.2603
0.992	12.3548
0.988	12.3001
0.984	12.3807
0.98	12.2811
0.976	12.219
0.972	12.2991
0.968	12.2235
0.964	12.2757
0.96	12.2606
0.956	12.1905
0.952	12.2547
0.948	12.1308
0.944	12.1891
0.94	12.1189
0.936	12.153
0.932	12.0876
0.928	12.0445
0.924	12.0116
0.92	12.0264
0.916	12.0443
0.912	12.0734
0.908	11.862
0.904	11.9374
0.9	12.0704
0.896	12.2411
0.892	12.2008
0.888	12.2132
0.884	12.1668
0.88	12.1263
0.876	12.1699
0.872	12.148
0.868	12.1075
0.864	12.2199
0.86	12.2137
0.856	12.2106
0.852	12.2887
0.848	12.333
0.844	12.41
0.84	12.3492
0.836	12.4963
0.832	12.4761
0.828	12.5839
0.824	12.4034
0.82	12.5339
0.816	12.6404
0.812	12.7747
0.808	12.7667
0.804	12.813
0.8	12.9725
0.799	12.9723
0.798	12.973
0.797	13.0186
0.796	13.1065
0.795	12.8299
0.794	12.7823
0.793	12.8114
0.792	12.8269
0.791	12.8412
0.79	12.8683
0.789	12.8013
0.788	12.7685
0.787	12.9512
0.786	12.9512
0.785	12.907
0.784	12.8527
0.783	12.8284
0.782	12.8313
0.781	12.731
0.78	12.7656
0.779	12.8027
0.778	12.7927
0.777	12.7599
0.776	12.8171
0.775	12.8173
0.774	12.7685
0.773	12.8586
0.772	12.8271
0.771	12.7855
0.77	12.7285
0.769	12.7285
0.768	12.6927
0.767	12.6185
0.766	12.7113
0.765	12.7212
0.764	12.6699
0.763	12.713
0.762	12.779
0.761	12.6668
0.76	12.713
0.759	12.6611
0.758	12.6384
0.757	12.6168
0.756	12.5969
0.755	12.5912
0.754	12.6327
0.753	12.6384
0.752	12.5451
0.751	12.5206
0.75	12.565
0.749	12.6368
0.748	12.6613
0.747	12.6197
0.746	12.7081
0.745	12.5642
0.744	12.6207
0.743	12.6567
0.742	12.6001
0.741	12.4602
0.74	12.5972
0.739	12.5026
0.738	12.5026
0.737	12.5848
0.736	12.6023
0.735	12.5663
0.734	12.5266
0.733	12.5598
0.732	12.5066
0.731	12.6508
0.73	12.6061
0.729	12.5101
0.728	12.5564
0.727	12.5983
0.726	12.5146
0.725	12.5163
0.724	12.5854
0.723	12.5464
0.722	12.5669
0.721	12.5337
0.72	12.5297
0.719	12.5378
0.718	12.6311
0.717	12.5239
0.716	12.5327
0.715	12.5944
0.714	12.5659
0.713	12.4742
0.712	12.4541
0.711	12.5035
0.71	12.4924
0.709	12.5208
0.708	12.5454
0.707	12.459
0.706	12.5365
0.705	12.4669
0.704	12.4582
0.703	12.4523
0.702	12.4689
0.701	12.464
0.7	12.5581
0.699	12.5534
0.698	12.3756
0.697	12.3966
0.696	12.3468
0.695	12.3928
0.694	12.4017
0.693	12.4106
0.692	12.4166
0.691	12.4017
0.69	12.3979
0.689	12.3598
0.688	12.4509
0.687	12.4599
0.686	12.4719
0.685	12.3853
0.684	12.4256
0.683	12.3853
0.682	12.4405
0.681	12.4555
0.68	12.4555
0.679	12.4555
0.678	12.4998
0.677	12.4031
0.676	12.4726
0.675	12.569
0.674	12.4624
0.673	12.5065
0.672	12.4973
0.671	12.5225
0.67	12.4413
0.669	12.5593
0.668	12.515
0.667	12.6185
0.666	12.5716
0.665	12.5748
0.664	12.5875
0.663	12.6564
0.662	12.6908
0.661	12.647
0.66	12.5937
0.659	12.7128
0.658	12.6468
0.657	12.625
0.656	12.6374
0.655	12.6878
0.654	12.7097
0.653	12.6157
0.652	12.7504
0.651	12.6908
0.65	12.7814
0.649	12.7909
0.648	12.8505
0.647	12.6876
0.646	12.7095
0.645	12.7189
0.644	12.7757
0.643	12.7816
0.642	12.8379
0.641	12.7972
0.64	12.8221
0.639	12.8316
0.638	12.8657
0.637	12.9662
0.636	12.9448
0.635	12.769
0.634	12.7377
0.633	12.8544
0.632	12.9904
0.631	12.9212
0.63	12.9708
0.629	12.961
0.628	12.9923
0.627	12.857
0.626	12.8788
0.625	12.9538
0.624	12.9538
0.623	13.0285
0.622	13.0039
0.621	13.0235
0.62	13.0053
0.619	13.0333
0.618	13.0465
0.617	13.0976
0.616	13.1042
0.615	13.1075
0.614	13.2182
0.613	13.1641
0.612	13.2563
0.611	13.235
0.61	13.2088
0.609	13.2614
0.608	13.1854
0.607	13.1063
0.606	13.1821
0.605	13.2707
0.604	13.2021
0.603	13.2799
0.602	13.2175
0.601	13.2579
0.6	13.3475
0.599	13.393
0.598	13.3999
0.597	13.3965
0.596	13.3236
0.595	13.3055
0.594	13.3134
0.593	13.4212
0.592	13.2816
0.591	13.2918
0.59	13.4001
0.589	13.3122
0.588	13.3656
0.587	13.5028
0.586	13.4359
0.585	13.394
0.584	13.4256
0.583	13.5865
0.582	13.4152
0.581	13.4403
0.58	13.4369
0.579	13.6117
0.578	13.4437
0.577	13.4889
0.576	13.4369
0.575	13.5942
0.574	13.7079
0.573	13.7343
0.572	13.6578
0.571	13.6594
0.57	13.7126
0.569	13.6285
0.568	13.6285
0.567	13.5632
0.566	13.6458
0.565	13.6992
0.564	13.7442
0.563	13.7512
0.562	13.7618
0.561	13.7173
0.56	13.7215
0.559	13.7499
0.558	13.5016
0.557	13.4716
0.556	13.6123
0.555	13.4857
0.554	13.4857
0.553	13.4924
0.552	13.5338
0.551	13.5232
0.55	13.5328
0.549	13.5463
0.548	13.5959
0.547	13.6076
0.546	13.6303
0.545	13.6372
0.544	13.6579
0.543	13.5871
0.542	13.6441
0.541	13.6855
0.54	13.6441
0.539	13.5573
0.538	13.7133
0.537	13.7136
0.536	13.6177
0.535	13.642
0.534	13.5464
0.533	13.5464
0.532	13.6142
0.531	13.6005
0.53	13.6089
0.529	13.5397
0.528	13.5498
0.527	13.6055
0.526	13.6123
0.525	13.5482
0.524	13.5347
0.523	13.576
0.522	13.5811
0.521	13.6153
0.52	13.5976
0.519	13.5329
0.518	13.6221
0.517	13.5379
0.516	13.5888
0.515	13.582
0.514	13.5338
0.513	13.5311
0.512	13.5199
0.511	13.5132
0.51	13.543
0.509	13.4918
0.508	13.5435
0.507	13.4817
0.506	13.3594
0.505	13.4334
0.504	13.5031
0.503	13.4522
0.502	13.3825
0.501	13.4607
0.5	13.2683
0.499	13.265
0.498	13.137
0.497	13.2164
0.496	13.1655
0.495	13.1369
0.494	13.1878
0.493	13.1042
0.492	13.1994
0.491	13.1771
0.49	13.0874
0.489	13.1266
0.488	13.0595
0.487	13.1329
0.486	13.0874
0.485	13.1092
0.484	13.0453
0.483	13.0195
0.482	13.0466
0.481	13.0231
0.48	12.9941
0.479	13.0798
0.478	13.0002
0.477	12.9347
0.476	12.9226
0.475	12.9437
0.474	12.8764
0.473	12.7511
0.472	12.7243
0.471	12.8243
0.47	12.8332
0.469	12.889
0.468	12.7948
0.467	12.7134
0.466	12.7163
0.465	12.5628
0.464	12.5085
0.463	12.5057
0.462	12.5249
0.461	12.5287
0.46	12.4233
0.459	12.3162
0.458	12.4253
0.457	12.4658
0.456	12.4804
0.455	12.491
0.454	12.4283
0.453	12.2582
0.452	12.3196
0.451	12.2481
0.45	12.2531
0.449	12.2139
0.448	12.3199
0.447	12.1769
0.446	12.1633
0.445	12.0734
0.444	12.0805
0.443	12.0186
0.442	12.0496
0.441	12.0568
0.44	12.0986
0.439	12.0386
0.438	11.9877
0.437	12.102
0.436	12.019
0.435	12.019
0.434	11.9385
0.433	11.9482
0.432	12.0266
0.431	11.7905
0.43	11.721
0.429	11.5868
0.428	11.7454
0.427	11.6987
0.426	11.7046
0.425	11.6216
0.424	11.5607
0.423	11.4894
0.422	11.4111
0.421	11.4312
0.42	11.4483
0.419	11.4617
0.418	11.5268
0.417	11.388
0.416	11.3996
0.415	11.3041
0.414	11.0729
0.413	11.1601
0.412	11.1523
0.411	11.2633
0.41	11.2348
0.409	11.2082
0.408	11.0722
0.407	11.0516
0.406	11.1037
0.405	10.93
0.404	11.0682
0.403	11.1005
0.402	11.0658
0.401	11.007
0.4	11.0948
