Name: Arkosic Sandstone 
Type:  Rocks
Class:  Sedimentary
Subclass: Sandstone 
Particle Size:  500 - 1500 Micrometers
Sample No.:  sandstone.1
Owner:  JHU
Wavelength Range:  All
Origin:  Sample No. 362,  The Hunt and Salisbury Collection at the U.S. 
Geological Survey, Denver, Co.
Description: Sample is moderately sorted fine medium-grained rock 
with slight porosity. Well-rounded to subrounded quartz grains have 
fluid inclusions and ferruginous staining, and are cemented with 
overgrowths of chalcedony. A trace of microcline and regions of 
concentrated carbonaceous granules and/or opaques on the grains 
are present. Secondary carbonate crystallites exist in some pores.
Measurement:  Directional (10 Degree) Hemispherical Reflectance
First Column:  X
Second Column:  Y  
X Units:  Wavelength (micrometers)
Y Units:  Reflectance (percent)
First X Value: 14.0112
Last X Value:  0.4
Number of X Values: 2844
Additional Information:  None

14.0112	2.4548
13.9734	2.5149
13.9359	2.5655
13.8985	2.5971
13.8614	2.6364
13.8244	2.6768
13.7876	2.7206
13.7511	2.7316
13.7147	2.745
13.6785	2.7845
13.6425	2.8412
13.6067	2.8969
13.5711	2.9369
13.5356	2.9747
13.5004	3.007
13.4653	3.0338
13.4304	3.0902
13.3957	3.1727
13.3612	3.2508
13.3269	3.3161
13.2927	3.3812
13.2587	3.4343
13.2249	3.5044
13.1912	3.5915
13.1577	3.685
13.1244	3.809
13.0913	3.9633
13.0583	4.137
13.0255	4.3521
12.9929	4.6097
12.9604	4.9318
12.9281	5.2826
12.8959	5.607
12.8639	5.8694
12.8321	6.0154
12.8004	5.9793
12.7688	5.7472
12.7375	5.3802
12.7063	5.0009
12.6752	4.7217
12.6443	4.6122
12.6135	4.6713
12.5829	4.8399
12.5524	5.017
12.5221	5.0835
12.4919	4.9505
12.4619	4.5677
12.432	3.9441
12.4023	3.1766
12.3727	2.3871
12.3432	1.6997
12.3139	1.2293
12.2847	1.0185
12.2557	1.0024
12.2268	1.0798
12.198	1.1802
12.1694	1.2808
12.1409	1.3789
12.1125	1.4672
12.0843	1.5648
12.0562	1.6631
12.0282	1.7495
12.0003	1.8274
11.9726	1.8964
11.945	1.9567
11.9176	2.0126
11.8903	2.0545
11.8631	2.0988
11.836	2.1497
11.809	2.2048
11.7822	2.2708
11.7555	2.3363
11.7289	2.3894
11.7024	2.4359
11.676	2.4811
11.6498	2.5299
11.6237	2.5811
11.5977	2.6251
11.5718	2.6678
11.546	2.7093
11.5203	2.7407
11.4948	2.7667
11.4694	2.8067
11.444	2.8524
11.4188	2.8909
11.3937	2.9276
11.3688	2.9577
11.3439	2.9833
11.3191	3.0104
11.2944	3.0314
11.2699	3.0537
11.2455	3.0711
11.2211	3.0881
11.1969	3.1055
11.1727	3.1194
11.1487	3.1419
11.1248	3.178
11.101	3.2144
11.0773	3.2396
11.0536	3.2512
11.0301	3.269
11.0067	3.2884
10.9834	3.3221
10.9602	3.3633
10.937	3.4049
10.914	3.4429
10.8911	3.4584
10.8682	3.4496
10.8455	3.447
10.8229	3.4524
10.8003	3.4712
10.7779	3.4953
10.7555	3.5298
10.7332	3.5671
10.7111	3.5965
10.689	3.6242
10.667	3.6628
10.6451	3.7059
10.6233	3.753
10.6015	3.795
10.5799	3.837
10.5584	3.8752
10.5369	3.9114
10.5155	3.9535
10.4942	3.997
10.473	4.0377
10.4519	4.085
10.4309	4.1403
10.4099	4.2045
10.3891	4.2638
10.3683	4.3245
10.3476	4.3904
10.327	4.4492
10.3065	4.5013
10.286	4.5584
10.2656	4.62
10.2454	4.6887
10.2251	4.7586
10.205	4.8296
10.185	4.8882
10.165	4.9378
10.1451	4.9961
10.1253	5.0672
10.1056	5.1412
10.0859	5.221
10.0663	5.3039
10.0468	5.3814
10.0274	5.4416
10.008	5.4905
9.9887	5.5469
9.9695	5.6335
9.9504	5.7452
9.9313	5.8735
9.9123	6.0123
9.8934	6.157
9.8746	6.2915
9.8558	6.4049
9.8371	6.5111
9.8185	6.6326
9.7999	6.7626
9.7814	6.9018
9.763	7.06
9.7447	7.2433
9.7264	7.4275
9.7082	7.6141
9.69	7.8077
9.6719	8.0005
9.6539	8.1964
9.636	8.3967
9.6181	8.6135
9.6003	8.8539
9.5825	9.1116
9.5649	9.3997
9.5472	9.7117
9.5297	10.0538
9.5122	10.4537
9.4948	10.9097
9.4774	11.4305
9.4601	12.0514
9.4429	12.8072
9.4257	13.7202
9.4086	14.7746
9.3916	15.9465
9.3746	17.1693
9.3577	18.3385
9.3408	19.3411
9.324	20.1031
9.3073	20.5981
9.2906	20.8412
9.274	20.878
9.2574	20.784
9.2409	20.6175
9.2245	20.4096
9.2081	20.1804
9.1918	19.945
9.1755	19.716
9.1593	19.5095
9.1431	19.3232
9.127	19.1413
9.111	18.9635
9.095	18.7887
9.0791	18.6056
9.0632	18.4077
9.0474	18.2008
9.0316	18.0012
9.0159	17.7954
9.0003	17.5937
8.9847	17.4364
8.9691	17.3492
8.9536	17.3217
8.9382	17.3354
8.9228	17.354
8.9075	17.3667
8.8922	17.3579
8.877	17.328
8.8618	17.284
8.8467	17.2289
8.8316	17.1672
8.8166	17.1052
8.8016	17.0373
8.7867	16.9706
8.7718	16.915
8.757	16.8631
8.7422	16.7923
8.7275	16.6826
8.7129	16.5002
8.6982	16.17
8.6837	15.5945
8.6692	14.7543
8.6547	13.843
8.6403	13.145
8.6259	12.8804
8.6116	13.15
8.5973	13.8918
8.583	14.8924
8.5688	15.8762
8.5547	16.6509
8.5406	17.1964
8.5266	17.5871
8.5126	17.8732
8.4986	18.0924
8.4847	18.2761
8.4708	18.4252
8.457	18.5498
8.4432	18.6752
8.4295	18.7937
8.4158	18.9035
8.4022	19.0176
8.3886	19.1602
8.375	19.3413
8.3615	19.5473
8.3481	19.7689
8.3347	20.0208
8.3213	20.2967
8.3079	20.5893
8.2946	20.9063
8.2814	21.2558
8.2682	21.6274
8.255	22.0112
8.2419	22.3873
8.2288	22.75
8.2158	23.0768
8.2028	23.317
8.1898	23.4209
8.1769	23.3391
8.164	23.0101
8.1512	22.4242
8.1384	21.6114
8.1256	20.6285
8.1129	19.5486
8.1002	18.426
8.0876	17.3189
8.075	16.2549
8.0624	15.2307
8.0499	14.2542
8.0374	13.3348
8.025	12.4663
8.0126	11.641
8.0002	10.8501
7.9879	10.0923
7.9756	9.353
7.9634	8.6207
7.9512	7.9062
7.939	7.2184
7.9268	6.5629
7.9147	5.9522
7.9027	5.3996
7.8906	4.9078
7.8786	4.4708
7.8667	4.0891
7.8548	3.7613
7.8429	3.47
7.831	3.2173
7.8192	2.9963
7.8075	2.8019
7.7957	2.6278
7.784	2.4648
7.7723	2.3165
7.7607	2.1782
7.7491	2.0397
7.7375	1.9064
7.726	1.7713
7.7145	1.6478
7.7031	1.5353
7.6916	1.4298
7.6802	1.342
7.6689	1.2721
7.6575	1.2016
7.6462	1.1271
7.635	1.0552
7.6238	0.9898
7.6126	0.9357
7.6014	0.8877
7.5903	0.8455
7.5792	0.8165
7.5681	0.7936
7.5571	0.769
7.5461	0.7465
7.5351	0.7269
7.5242	0.7211
7.5133	0.7197
7.5024	0.7018
7.4916	0.684
7.4807	0.6754
7.47	0.6661
7.4592	0.6482
7.4485	0.6376
7.4378	0.641
7.4272	0.6402
7.4165	0.6247
7.4059	0.6103
7.3954	0.6058
7.3848	0.6053
7.3743	0.5999
7.3639	0.5934
7.3534	0.5905
7.343	0.5896
7.3326	0.5936
7.3223	0.5999
7.3119	0.6089
7.3016	0.6201
7.2914	0.623
7.2811	0.6175
7.2709	0.6147
7.2607	0.618
7.2506	0.624
7.2404	0.6336
7.2303	0.6474
7.2203	0.6646
7.2102	0.6776
7.2002	0.6817
7.1902	0.6774
7.1803	0.6685
7.1703	0.653
7.1604	0.6493
7.1506	0.6625
7.1407	0.6809
7.1309	0.7023
7.1211	0.7159
7.1113	0.7232
7.1016	0.7338
7.0919	0.739
7.0822	0.7417
7.0725	0.74
7.0629	0.7307
7.0533	0.7224
7.0437	0.7187
7.0341	0.7242
7.0246	0.736
7.0151	0.7455
7.0056	0.752
6.9962	0.7503
6.9867	0.7426
6.9773	0.7372
6.9679	0.7429
6.9586	0.7599
6.9493	0.7664
6.94	0.7747
6.9307	0.7874
6.9214	0.7891
6.9122	0.7862
6.903	0.7848
6.8938	0.785
6.8847	0.7898
6.8755	0.7893
6.8664	0.7924
6.8573	0.7951
6.8483	0.7921
6.8393	0.7977
6.8302	0.8135
6.8213	0.8216
6.8123	0.8183
6.8034	0.8152
6.7944	0.8165
6.7855	0.818
6.7767	0.8165
6.7678	0.8195
6.759	0.8326
6.7502	0.847
6.7414	0.8487
6.7327	0.8449
6.7239	0.8527
6.7152	0.8601
6.7065	0.856
6.6979	0.8472
6.6892	0.8505
6.6806	0.8676
6.672	0.8743
6.6634	0.8709
6.6549	0.8745
6.6464	0.8788
6.6378	0.8817
6.6294	0.8898
6.6209	0.9075
6.6124	0.9233
6.604	0.9343
6.5956	0.9352
6.5872	0.9262
6.5789	0.9224
6.5705	0.9216
6.5622	0.9151
6.5539	0.9068
6.5456	0.9104
6.5374	0.9295
6.5292	0.9433
6.5209	0.9575
6.5128	0.9805
6.5046	0.9872
6.4964	0.9742
6.4883	0.963
6.4802	0.9699
6.4721	0.985
6.464	0.9979
6.456	1.0173
6.448	1.0391
6.4399	1.0456
6.432	1.0376
6.424	1.0257
6.416	1.0157
6.4081	1.017
6.4002	1.018
6.3923	1.0135
6.3844	1.0077
6.3766	0.997
6.3687	0.9776
6.3609	0.9568
6.3531	0.9412
6.3454	0.9345
6.3376	0.9309
6.3299	0.9249
6.3221	0.9204
6.3144	0.9164
6.3068	0.9133
6.2991	0.9133
6.2914	0.9164
6.2838	0.9187
6.2762	0.9204
6.2686	0.9189
6.2611	0.9168
6.2535	0.913
6.246	0.9083
6.2385	0.9023
6.231	0.8996
6.2235	0.89
6.216	0.8759
6.2086	0.8678
6.2011	0.8718
6.1937	0.8807
6.1863	0.8889
6.179	0.8984
6.1716	0.9075
6.1643	0.9087
6.157	0.9138
6.1496	0.9309
6.1424	0.9589
6.1351	0.981
6.1278	0.9936
6.1206	1.0042
6.1134	1.0056
6.1062	0.9986
6.099	0.9941
6.0918	1.0051
6.0847	1.0265
6.0776	1.0436
6.0704	1.0537
6.0633	1.0628
6.0563	1.0688
6.0492	1.0707
6.0421	1.0693
6.0351	1.0695
6.0281	1.0796
6.0211	1.092
6.0141	1.0934
6.0071	1.0962
6.0002	1.103
5.9932	1.1068
5.9863	1.1051
5.9794	1.0997
5.9725	1.1045
5.9657	1.1118
5.9588	1.1047
5.952	1.1005
5.9451	1.108
5.9383	1.1121
5.9315	1.1116
5.9247	1.113
5.918	1.1241
5.9112	1.1355
5.9045	1.1434
5.8978	1.1596
5.8911	1.1805
5.8844	1.1973
5.8777	1.2132
5.8711	1.2317
5.8644	1.2525
5.8578	1.271
5.8512	1.2929
5.8446	1.3186
5.838	1.3392
5.8314	1.3585
5.8249	1.3812
5.8184	1.4064
5.8118	1.4286
5.8053	1.4471
5.7988	1.4685
5.7923	1.4944
5.7859	1.5168
5.7794	1.5346
5.773	1.552
5.7666	1.5696
5.7602	1.5827
5.7538	1.6043
5.7474	1.6343
5.741	1.6621
5.7347	1.6841
5.7283	1.6968
5.722	1.7011
5.7157	1.6971
5.7094	1.6886
5.7031	1.6918
5.6969	1.6913
5.6906	1.6707
5.6844	1.6478
5.6782	1.6224
5.6719	1.5892
5.6657	1.552
5.6596	1.5168
5.6534	1.4826
5.6472	1.4428
5.6411	1.4054
5.6349	1.3889
5.6288	1.3822
5.6227	1.3745
5.6166	1.3697
5.6106	1.3631
5.6045	1.3503
5.5984	1.3401
5.5924	1.3334
5.5864	1.3293
5.5804	1.331
5.5744	1.3382
5.5684	1.3455
5.5624	1.3525
5.5564	1.3588
5.5505	1.3654
5.5445	1.3669
5.5386	1.3693
5.5327	1.3802
5.5268	1.3994
5.5209	1.4227
5.5151	1.4418
5.5092	1.4518
5.5033	1.4561
5.4975	1.463
5.4917	1.4755
5.4859	1.4891
5.4801	1.5102
5.4743	1.5331
5.4685	1.5523
5.4628	1.5681
5.457	1.5812
5.4513	1.5889
5.4455	1.5855
5.4398	1.57
5.4341	1.5518
5.4284	1.5289
5.4228	1.5073
5.4171	1.4911
5.4114	1.4712
5.4058	1.4423
5.4002	1.4121
5.3945	1.3843
5.3889	1.364
5.3833	1.3487
5.3778	1.3341
5.3722	1.3253
5.3666	1.3152
5.3611	1.3035
5.3555	1.297
5.35	1.2944
5.3445	1.2912
5.339	1.2858
5.3335	1.2858
5.328	1.2949
5.3225	1.3061
5.3171	1.3155
5.3116	1.3238
5.3062	1.3303
5.3008	1.3279
5.2954	1.3221
5.29	1.3241
5.2846	1.3349
5.2792	1.3442
5.2738	1.3513
5.2684	1.3604
5.2631	1.3743
5.2578	1.3925
5.2524	1.4152
5.2471	1.4396
5.2418	1.4674
5.2365	1.4949
5.2312	1.5224
5.226	1.5533
5.2207	1.5822
5.2154	1.6102
5.2102	1.6358
5.205	1.6528
5.1998	1.6604
5.1945	1.6667
5.1893	1.6693
5.1842	1.6662
5.179	1.6609
5.1738	1.6617
5.1686	1.6662
5.1635	1.6733
5.1584	1.6805
5.1532	1.6853
5.1481	1.6839
5.143	1.678
5.1379	1.6722
5.1328	1.6647
5.1277	1.6586
5.1227	1.6556
5.1176	1.6516
5.1126	1.6516
5.1075	1.6554
5.1025	1.6609
5.0975	1.6637
5.0925	1.6597
5.0875	1.6537
5.0825	1.6449
5.0775	1.6287
5.0726	1.6179
5.0676	1.6152
5.0627	1.6176
5.0577	1.6186
5.0528	1.6184
5.0479	1.6171
5.043	1.6121
5.038	1.604
5.0332	1.6018
5.0283	1.604
5.0234	1.6064
5.0185	1.6073
5.0137	1.6136
5.0088	1.6169
5.004	1.6126
4.9992	1.6126
4.9944	1.6189
4.9896	1.6291
4.9848	1.6511
4.98	1.6848
4.9752	1.7258
4.9704	1.7607
4.9657	1.7913
4.9609	1.8234
4.9562	1.8526
4.9514	1.8832
4.9467	1.919
4.942	1.9514
4.9373	1.9803
4.9326	2.0073
4.9279	2.038
4.9232	2.0797
4.9186	2.1392
4.9139	2.2274
4.9092	2.3464
4.9046	2.4968
4.9	2.6789
4.8953	2.8845
4.8907	3.1113
4.8861	3.3563
4.8815	3.6106
4.8769	3.8692
4.8723	4.1336
4.8678	4.4028
4.8632	4.6665
4.8586	4.9134
4.8541	5.1515
4.8495	5.383
4.845	5.594
4.8405	5.7922
4.836	5.9901
4.8315	6.1862
4.827	6.3765
4.8225	6.5569
4.818	6.7392
4.8135	6.9191
4.809	7.0901
4.8046	7.2581
4.8001	7.4201
4.7957	7.5768
4.7913	7.7313
4.7868	7.8857
4.7824	8.045
4.778	8.1977
4.7736	8.337
4.7692	8.4656
4.7648	8.5826
4.7605	8.6894
4.7561	8.7925
4.7517	8.8891
4.7474	8.982
4.7431	9.0597
4.7387	9.1186
4.7344	9.1578
4.7301	9.1769
4.7258	9.1739
4.7215	9.143
4.7172	9.0731
4.7129	8.9638
4.7086	8.8114
4.7043	8.6107
4.7	8.363
4.6958	8.0979
4.6915	7.8543
4.6873	7.6742
4.6831	7.596
4.6788	7.638
4.6746	7.7907
4.6704	8.0249
4.6662	8.3034
4.662	8.6013
4.6578	8.8989
4.6536	9.1945
4.6495	9.493
4.6453	9.7959
4.6411	10.1005
4.637	10.4005
4.6328	10.6819
4.6287	10.9393
4.6246	11.163
4.6205	11.357
4.6163	11.5315
4.6122	11.6875
4.6081	11.8253
4.604	11.9449
4.6	12.0435
4.5959	12.1191
4.5918	12.178
4.5877	12.2275
4.5837	12.2578
4.5796	12.2603
4.5756	12.2426
4.5716	12.205
4.5675	12.1411
4.5635	12.0452
4.5595	11.926
4.5555	11.7803
4.5515	11.5889
4.5475	11.3475
4.5435	11.0788
4.5395	10.787
4.5356	10.468
4.5316	10.1302
4.5276	9.7794
4.5237	9.4159
4.5197	9.0338
4.5158	8.6389
4.5119	8.2585
4.508	7.9041
4.504	7.5816
4.5001	7.3055
4.4962	7.0879
4.4923	6.9248
4.4884	6.7949
4.4846	6.6872
4.4807	6.6019
4.4768	6.5342
4.473	6.4791
4.4691	6.4518
4.4652	6.4709
4.4614	6.5375
4.4576	6.6418
4.4537	6.7662
4.4499	6.897
4.4461	7.0258
4.4423	7.1432
4.4385	7.2521
4.4347	7.36
4.4309	7.4739
4.4271	7.6015
4.4233	7.7373
4.4196	7.8883
4.4158	8.0551
4.412	8.2286
4.4083	8.407
4.4045	8.5915
4.4008	8.7896
4.3971	9.0051
4.3934	9.2341
4.3896	9.4815
4.3859	9.7433
4.3822	10.0048
4.3785	10.2605
4.3748	10.5146
4.3711	10.7747
4.3674	11.0413
4.3638	11.3009
4.3601	11.5482
4.3564	11.7866
4.3528	12.0083
4.3491	12.2019
4.3455	12.3739
4.3418	12.5287
4.3382	12.6668
4.3346	12.7787
4.331	12.8647
4.3273	12.9289
4.3237	12.9714
4.3201	12.9771
4.3165	12.9568
4.3129	12.923
4.3094	12.8753
4.3058	12.8177
4.3022	12.7668
4.2986	12.7276
4.2951	12.7
4.2915	12.6785
4.288	12.6725
4.2844	12.6878
4.2809	12.7086
4.2774	12.7443
4.2738	12.8064
4.2703	12.8993
4.2668	13.0225
4.2633	13.1651
4.2598	13.3178
4.2563	13.4579
4.2528	13.5602
4.2493	13.6264
4.2458	13.6596
4.2424	13.6712
4.2389	13.6822
4.2354	13.7021
4.232	13.737
4.2285	13.7864
4.2251	13.8475
4.2216	13.9109
4.2182	13.9619
4.2148	14.0025
4.2113	14.0391
4.2079	14.0698
4.2045	14.0965
4.2011	14.1245
4.1977	14.1621
4.1943	14.2145
4.1909	14.2856
4.1875	14.381
4.1841	14.4962
4.1808	14.62
4.1774	14.7454
4.174	14.8634
4.1707	14.9756
4.1673	15.0881
4.164	15.2028
4.1606	15.3144
4.1573	15.4149
4.154	15.5106
4.1506	15.6077
4.1473	15.7036
4.144	15.8042
4.1407	15.9137
4.1374	16.0336
4.1341	16.1532
4.1308	16.2635
4.1275	16.3772
4.1242	16.498
4.1209	16.6202
4.1177	16.7502
4.1144	16.8889
4.1111	17.0351
4.1079	17.1796
4.1046	17.317
4.1014	17.451
4.0981	17.5844
4.0949	17.7172
4.0917	17.8417
4.0884	17.9556
4.0852	18.0641
4.082	18.1629
4.0788	18.2496
4.0756	18.3297
4.0724	18.4054
4.0692	18.4678
4.066	18.5095
4.0628	18.5367
4.0596	18.5544
4.0565	18.5568
4.0533	18.5491
4.0501	18.5391
4.047	18.5226
4.0438	18.4946
4.0406	18.4654
4.0375	18.4364
4.0344	18.3991
4.0312	18.3527
4.0281	18.3082
4.025	18.2637
4.0218	18.2152
4.0187	18.1644
4.0156	18.1249
4.0125	18.1
4.0094	18.0726
4.0063	18.0388
4.0032	18.0049
4.0001	17.9649
3.997	17.9189
3.994	17.8773
3.9909	17.8593
3.9878	17.8653
3.9847	17.8847
3.9817	17.9189
3.9786	17.968
3.9756	18.0251
3.9725	18.095
3.9695	18.1816
3.9665	18.2854
3.9634	18.3981
3.9604	18.5197
3.9574	18.6506
3.9544	18.7853
3.9513	18.9188
3.9483	19.0544
3.9453	19.1867
3.9423	19.3026
3.9393	19.3954
3.9363	19.4679
3.9333	19.5195
3.9304	19.5602
3.9274	19.5927
3.9244	19.6224
3.9214	19.6447
3.9185	19.6505
3.9155	19.6414
3.9126	19.6224
3.9096	19.5921
3.9067	19.5502
3.9037	19.4995
3.9008	19.4478
3.8979	19.3911
3.8949	19.3253
3.892	19.2549
3.8891	19.1894
3.8862	19.121
3.8833	19.0385
3.8804	18.9568
3.8775	18.8843
3.8746	18.8142
3.8717	18.7444
3.8688	18.6755
3.8659	18.619
3.863	18.5669
3.8601	18.5159
3.8573	18.4761
3.8544	18.4436
3.8515	18.4118
3.8487	18.3855
3.8458	18.3601
3.843	18.3424
3.8401	18.3302
3.8373	18.329
3.8344	18.3415
3.8316	18.3616
3.8288	18.3812
3.8259	18.3953
3.8231	18.3989
3.8203	18.3908
3.8175	18.3774
3.8147	18.3687
3.8119	18.3611
3.8091	18.3551
3.8063	18.3405
3.8035	18.3101
3.8007	18.267
3.7979	18.212
3.7951	18.1531
3.7924	18.0932
3.7896	18.0297
3.7868	17.9675
3.7841	17.8892
3.7813	17.7914
3.7785	17.69
3.7758	17.5869
3.773	17.4813
3.7703	17.3813
3.7676	17.2921
3.7648	17.2081
3.7621	17.116
3.7594	17.0151
3.7566	16.9238
3.7539	16.8389
3.7512	16.7513
3.7485	16.672
3.7458	16.6064
3.7431	16.5513
3.7404	16.5002
3.7377	16.4535
3.735	16.4147
3.7323	16.3793
3.7296	16.3535
3.7269	16.3396
3.7242	16.3307
3.7216	16.3267
3.7189	16.3245
3.7162	16.3207
3.7136	16.3156
3.7109	16.3173
3.7083	16.3322
3.7056	16.343
3.703	16.3443
3.7003	16.3563
3.6977	16.3774
3.695	16.3872
3.6924	16.3881
3.6898	16.3888
3.6872	16.3838
3.6845	16.37
3.6819	16.3599
3.6793	16.3712
3.6767	16.3906
3.6741	16.3953
3.6715	16.3812
3.6689	16.3619
3.6663	16.3345
3.6637	16.2982
3.6611	16.2558
3.6585	16.2162
3.656	16.1717
3.6534	16.1154
3.6508	16.0532
3.6482	16.002
3.6457	15.9491
3.6431	15.8888
3.6406	15.8183
3.638	15.7408
3.6355	15.6541
3.6329	15.5605
3.6304	15.4768
3.6278	15.4065
3.6253	15.3404
3.6227	15.2768
3.6202	15.2106
3.6177	15.1404
3.6152	15.0641
3.6127	14.9868
3.6101	14.9146
3.6076	14.8409
3.6051	14.7732
3.6026	14.705
3.6001	14.6385
3.5976	14.5746
3.5951	14.5023
3.5926	14.4301
3.5901	14.3571
3.5876	14.2803
3.5852	14.2124
3.5827	14.1483
3.5802	14.0822
3.5777	14.013
3.5753	13.931
3.5728	13.8453
3.5704	13.7671
3.5679	13.6867
3.5654	13.607
3.563	13.5333
3.5605	13.4465
3.5581	13.3479
3.5557	13.2446
3.5532	13.1448
3.5508	13.0508
3.5484	12.9457
3.5459	12.8359
3.5435	12.734
3.5411	12.6129
3.5387	12.4823
3.5363	12.3627
3.5338	12.2478
3.5314	12.1332
3.529	12.0248
3.5266	11.9207
3.5242	11.82
3.5218	11.7138
3.5195	11.6154
3.5171	11.5424
3.5147	11.4803
3.5123	11.4217
3.5099	11.3688
3.5075	11.3216
3.5052	11.2783
3.5028	11.2212
3.5004	11.1601
3.4981	11.1176
3.4957	11.08
3.4934	11.0451
3.491	11.0152
3.4887	10.9814
3.4863	10.9336
3.484	10.8532
3.4816	10.7608
3.4793	10.6793
3.477	10.6001
3.4746	10.5328
3.4723	10.484
3.47	10.4318
3.4677	10.3694
3.4653	10.3038
3.463	10.2404
3.4607	10.1667
3.4584	10.082
3.4561	10.0014
3.4538	9.9345
3.4515	9.8653
3.4492	9.7921
3.4469	9.726
3.4446	9.6686
3.4423	9.6098
3.44	9.5605
3.4378	9.5294
3.4355	9.51
3.4332	9.4861
3.4309	9.4485
3.4287	9.3949
3.4264	9.3414
3.4241	9.2803
3.4219	9.2119
3.4196	9.1444
3.4174	9.0779
3.4151	9.0176
3.4129	8.9636
3.4106	8.91
3.4084	8.8587
3.4061	8.8049
3.4039	8.747
3.4017	8.6874
3.3994	8.6149
3.3972	8.546
3.395	8.4893
3.3928	8.4309
3.3906	8.3668
3.3883	8.2986
3.3861	8.2316
3.3839	8.1718
3.3817	8.1106
3.3795	8.0586
3.3773	8.006
3.3751	7.951
3.3729	7.9046
3.3707	7.8598
3.3685	7.8261
3.3663	7.7934
3.3641	7.7527
3.362	7.7082
3.3598	7.6569
3.3576	7.6124
3.3554	7.5773
3.3533	7.5397
3.3511	7.5105
3.3489	7.4801
3.3468	7.4409
3.3446	7.4071
3.3425	7.3904
3.3403	7.3809
3.3382	7.3519
3.336	7.304
3.3339	7.2516
3.3317	7.2005
3.3296	7.1485
3.3274	7.1024
3.3253	7.0675
3.3232	7.0337
3.321	6.986
3.3189	6.937
3.3168	6.8822
3.3147	6.8167
3.3126	6.7612
3.3104	6.715
3.3083	6.6669
3.3062	6.6193
3.3041	6.57
3.302	6.5315
3.2999	6.4829
3.2978	6.4157
3.2957	6.3592
3.2936	6.3106
3.2915	6.2556
3.2894	6.2058
3.2874	6.1556
3.2853	6.1068
3.2832	6.0599
3.2811	6.0032
3.279	5.9465
3.277	5.9003
3.2749	5.8553
3.2728	5.8154
3.2708	5.7747
3.2687	5.7381
3.2666	5.7084
3.2646	5.6677
3.2625	5.6292
3.2605	5.5915
3.2584	5.5477
3.2564	5.5005
3.2543	5.4531
3.2523	5.4072
3.2503	5.3548
3.2482	5.3043
3.2462	5.2697
3.2442	5.233
3.2421	5.2048
3.2401	5.1825
3.2381	5.152
3.2361	5.111
3.234	5.0634
3.232	5.0172
3.23	4.9787
3.228	4.9428
3.226	4.9199
3.224	4.8882
3.222	4.8387
3.22	4.7842
3.218	4.7352
3.216	4.6916
3.214	4.6633
3.212	4.6528
3.21	4.6466
3.208	4.6246
3.206	4.5899
3.204	4.5468
3.2021	4.5016
3.2001	4.4502
3.1981	4.4026
3.1961	4.3758
3.1942	4.3574
3.1922	4.3385
3.1902	4.3219
3.1883	4.3086
3.1863	4.2863
3.1844	4.2504
3.1824	4.2075
3.1805	4.1705
3.1785	4.1428
3.1766	4.1179
3.1746	4.093
3.1727	4.0739
3.1707	4.0602
3.1688	4.0413
3.1669	4.0174
3.1649	3.9909
3.163	3.9673
3.1611	3.9403
3.1591	3.9042
3.1572	3.8738
3.1553	3.8578
3.1534	3.8393
3.1515	3.8269
3.1495	3.8093
3.1476	3.7855
3.1457	3.764
3.1438	3.7408
3.1419	3.7118
3.14	3.6884
3.1381	3.668
3.1362	3.6525
3.1343	3.6272
3.1324	3.5965
3.1305	3.5749
3.1286	3.5547
3.1268	3.5329
3.1249	3.5309
3.123	3.541
3.1211	3.5499
3.1192	3.5437
3.1174	3.515
3.1155	3.4803
3.1136	3.4436
3.1117	3.4142
3.1099	3.4041
3.108	3.4011
3.1061	3.3955
3.1043	3.3874
3.1024	3.3676
3.1006	3.34
3.0987	3.3256
3.0969	3.3252
3.095	3.3293
3.0932	3.3281
3.0913	3.3156
3.0895	3.303
3.0876	3.2907
3.0858	3.2708
3.084	3.2554
3.0821	3.2421
3.0803	3.234
3.0785	3.2353
3.0766	3.225
3.0748	3.2192
3.073	3.2316
3.0712	3.2391
3.0694	3.2307
3.0675	3.2194
3.0657	3.2127
3.0639	3.1979
3.0621	3.1742
3.0603	3.153
3.0585	3.1286
3.0567	3.1053
3.0549	3.0952
3.0531	3.1022
3.0513	3.1101
3.0495	3.1053
3.0477	3.106
3.0459	3.105
3.0441	3.0939
3.0423	3.0833
3.0406	3.0816
3.0388	3.0783
3.037	3.069
3.0352	3.0572
3.0334	3.0462
3.0317	3.0501
3.0299	3.0653
3.0281	3.0743
3.0264	3.0802
3.0246	3.0843
3.0228	3.0778
3.0211	3.062
3.0193	3.0429
3.0176	3.0285
3.0158	3.0094
3.014	2.9916
3.0123	2.996
3.0105	3.0056
3.0088	3.0041
3.007	3.001
3.0053	3.0008
3.0036	2.9919
3.0018	2.9706
3.0001	2.9577
2.9984	2.9699
2.9966	2.9792
2.9949	2.9723
2.9932	2.9624
2.9914	2.9508
2.9897	2.9326
2.988	2.9081
2.9863	2.8947
2.9845	2.9041
2.9828	2.9161
2.9811	2.9249
2.9794	2.9299
2.9777	2.938
2.976	2.9433
2.9743	2.9277
2.9726	2.9178
2.9709	2.9144
2.9692	2.8974
2.9675	2.8694
2.9658	2.8336
2.9641	2.8077
2.9624	2.7893
2.9607	2.7709
2.959	2.7646
2.9573	2.7713
2.9556	2.7859
2.9539	2.8009
2.9523	2.823
2.9506	2.8429
2.9489	2.8484
2.9472	2.8464
2.9455	2.8318
2.9439	2.8182
2.9422	2.8108
2.9405	2.8108
2.9389	2.8285
2.9372	2.8495
2.9355	2.8622
2.9339	2.8778
2.9322	2.8859
2.9306	2.8776
2.9289	2.8587
2.9272	2.8464
2.9256	2.8484
2.9239	2.8615
2.9223	2.8816
2.9207	2.9012
2.919	2.9242
2.9174	2.9465
2.9157	2.9586
2.9141	2.978
2.9124	2.9835
2.9108	2.9581
2.9092	2.9264
2.9075	2.9005
2.9059	2.8979
2.9043	2.9032
2.9027	2.9038
2.901	2.9274
2.8994	2.9374
2.8978	2.9171
2.8962	2.9108
2.8946	2.9244
2.8929	2.9326
2.8913	2.9282
2.8897	2.9359
2.8881	2.9654
2.8865	2.9795
2.8849	2.9888
2.8833	3.0154
2.8817	3.0338
2.8801	3.0421
2.8785	3.0622
2.8769	3.0902
2.8753	3.1111
2.8737	3.1111
2.8721	3.1141
2.8705	3.1252
2.8689	3.1269
2.8673	3.1309
2.8658	3.1331
2.8642	3.1261
2.8626	3.1201
2.861	3.1218
2.8594	3.1259
2.8579	3.1287
2.8563	3.1515
2.8547	3.1938
2.8531	3.2235
2.8516	3.2421
2.85	3.2618
2.8484	3.2755
2.8469	3.274
2.8453	3.2565
2.8437	3.2577
2.8422	3.2809
2.8406	3.2905
2.8391	3.2941
2.8375	3.2941
2.836	3.2967
2.8344	3.308
2.8329	3.3197
2.8313	3.3359
2.8298	3.3585
2.8282	3.3769
2.8267	3.3869
2.8252	3.3932
2.8236	3.4066
2.8221	3.4212
2.8205	3.4338
2.819	3.4532
2.8175	3.4776
2.8159	3.5044
2.8144	3.5099
2.8129	3.4977
2.8114	3.4771
2.8098	3.4568
2.8083	3.4527
2.8068	3.467
2.8053	3.497
2.8038	3.5341
2.8022	3.5547
2.8007	3.5482
2.7992	3.5276
2.7977	3.5171
2.7962	3.5152
2.7947	3.5034
2.7932	3.4927
2.7917	3.4848
2.7902	3.4836
2.7887	3.4982
2.7872	3.5228
2.7857	3.557
2.7842	3.5745
2.7827	3.5573
2.7812	3.5357
2.7797	3.5255
2.7782	3.5319
2.7767	3.5671
2.7752	3.6242
2.7738	3.6824
2.7723	3.713
2.7708	3.709
2.7693	3.6868
2.7678	3.6478
2.7664	3.5827
2.7649	3.5111
2.7634	3.4864
2.7619	3.524
2.7605	3.6071
2.759	3.7353
2.7575	3.9006
2.7561	4.0688
2.7546	4.2014
2.7531	4.3239
2.7517	4.4605
2.7502	4.5844
2.7488	4.6837
2.7473	4.7866
2.7458	4.8957
2.7444	4.9883
2.7429	5.0587
2.7415	5.1249
2.74	5.196
2.7386	5.2931
2.7371	5.4553
2.7357	5.6967
2.7343	5.9874
2.7328	6.302
2.7314	6.613
2.7299	6.8726
2.7285	7.094
2.7271	7.3248
2.7256	7.601
2.7242	7.9295
2.7228	8.3091
2.7213	8.7415
2.7199	9.1894
2.7185	9.6065
2.7171	9.978
2.7156	10.3096
2.7142	10.6072
2.7128	10.8816
2.7114	11.136
2.71	11.3844
2.7085	11.6526
2.7071	11.9887
2.7057	12.4356
2.7043	13.0151
2.7029	13.7406
2.7015	14.5976
2.7001	15.5029
2.6987	16.3843
2.6973	17.2031
2.6959	17.9707
2.6945	18.703
2.6931	19.4064
2.6917	20.1136
2.6903	20.8405
2.6889	21.5516
2.6875	22.216
2.6861	22.8302
2.6847	23.409
2.6833	23.9482
2.6819	24.4442
2.6805	24.9182
2.6791	25.3959
2.6778	25.8632
2.6764	26.3193
2.675	26.7688
2.6736	27.1995
2.6722	27.618
2.6709	28.0208
2.6695	28.4116
2.6681	28.8058
2.6667	29.1939
2.6654	29.5703
2.664	29.9136
2.6626	30.2201
2.6613	30.5271
2.6599	30.8194
2.6585	31.0843
2.6572	31.337
2.6558	31.5798
2.6545	31.7996
2.6531	31.9925
2.6517	32.1756
2.6504	32.3739
2.649	32.5643
2.6477	32.7457
2.6463	32.9347
2.645	33.1215
2.6436	33.297
2.6423	33.464
2.6409	33.626
2.6396	33.7798
2.6382	33.9159
2.6369	34.0501
2.6356	34.1841
2.6342	34.3114
2.6329	34.4363
2.6315	34.5545
2.6302	34.6609
2.6289	34.766
2.6275	34.871
2.6262	34.9902
2.6249	35.105
2.6236	35.2029
2.6222	35.2904
2.6209	35.3601
2.6196	35.4062
2.6183	35.454
2.6169	35.5189
2.6156	35.6044
2.6143	35.6854
2.613	35.7445
2.6117	35.8031
2.6103	35.8637
2.609	35.8989
2.6077	35.9359
2.6064	35.9886
2.6051	36.0539
2.6038	36.1132
2.6025	36.1642
2.6012	36.2317
2.5999	36.2898
2.5986	36.2831
2.5973	36.2549
2.596	36.2616
2.5947	36.3013
2.5934	36.3437
2.5921	36.3917
2.5908	36.4491
2.5895	36.5004
2.5882	36.5094
2.5869	36.5145
2.5856	36.5497
2.5843	36.5836
2.583	36.597
2.5817	36.5958
2.5805	36.5896
2.5792	36.5972
2.5779	36.6095
2.5766	36.6279
2.5753	36.6573
2.5741	36.6843
2.5728	36.7157
2.5715	36.7607
2.5702	36.8186
2.569	36.8882
2.5677	36.9533
2.5664	36.9969
2.5651	37.02
2.5639	37.0337
2.5626	37.0641
2.5613	37.1134
2.5601	37.1672
2.5588	37.2198
2.5575	37.2557
2.5563	37.2804
2.555	37.2947
2.5538	37.3134
2.5525	37.3504
2.5513	37.3943
2.55	37.4389
2.5487	37.4768
2.5475	37.498
2.5462	37.5359
2.545	37.5935
2.5437	37.6495
2.5425	37.7072
2.5413	37.7747
2.54	37.8383
2.5388	37.877
2.5375	37.9017
2.5363	37.9381
2.535	37.9837
2.5338	38.0222
2.5326	38.0704
2.5313	38.1344
2.5301	38.1927
2.5289	38.2364
2.5276	38.272
2.5264	38.3049
2.5252	38.3393
2.5239	38.3802
2.5227	38.429
2.5215	38.4788
2.5202	38.5316
2.519	38.5833
2.5178	38.6292
2.5166	38.6707
2.5154	38.7207
2.5141	38.7675
2.5129	38.7975
2.5117	38.8241
2.5105	38.8613
2.5093	38.9025
2.5081	38.9491
2.5068	38.9966
2.5056	39.0451
2.5044	39.1018
2.5032	39.1676
2.502	39.2366
2.5008	39.2992
2.4996	39.349
2.4984	39.4076
2.4972	39.4673
2.496	39.5131
2.4948	39.5732
2.4936	39.6428
2.4924	39.7028
2.4912	39.7564
2.49	39.8215
2.4888	39.9062
2.4876	39.9913
2.4864	40.0689
2.4852	40.1497
2.484	40.234
2.4828	40.3187
2.4816	40.4161
2.4805	40.5356
2.4793	40.6586
2.4781	40.7675
2.4769	40.8701
2.4757	40.967
2.4745	41.0623
2.4734	41.1563
2.4722	41.2585
2.471	41.3664
2.4698	41.4783
2.4686	41.5798
2.4675	41.6767
2.4663	41.7696
2.4651	41.8645
2.464	41.9676
2.4628	42.0693
2.4616	42.1688
2.4604	42.2657
2.4593	42.3519
2.4581	42.4485
2.4569	42.5741
2.4558	42.711
2.4546	42.8378
2.4535	42.9508
2.4523	43.055
2.4511	43.1513
2.45	43.251
2.4488	43.3692
2.4477	43.4907
2.4465	43.6187
2.4454	43.7362
2.4442	43.8386
2.4431	43.951
2.4419	44.0815
2.4408	44.2267
2.4396	44.3758
2.4385	44.5162
2.4373	44.6708
2.4362	44.8153
2.435	44.9406
2.4339	45.0761
2.4327	45.2308
2.4316	45.3905
2.4305	45.5362
2.4293	45.674
2.4282	45.8063
2.427	45.9348
2.4259	46.0577
2.4248	46.1872
2.4236	46.3319
2.4225	46.4691
2.4214	46.5869
2.4202	46.6857
2.4191	46.7846
2.418	46.896
2.4169	47.0198
2.4157	47.1566
2.4146	47.2916
2.4135	47.4253
2.4124	47.555
2.4112	47.6536
2.4101	47.7421
2.409	47.8395
2.4079	47.9378
2.4068	48.0221
2.4056	48.0857
2.4045	48.1546
2.4034	48.2326
2.4023	48.3017
2.4012	48.37
2.4001	48.4321
2.399	48.4568
2.3979	48.4608
2.3967	48.4666
2.3956	48.4867
2.3945	48.53
2.3934	48.5678
2.3923	48.5962
2.3912	48.6132
2.3901	48.6113
2.389	48.613
2.3879	48.6309
2.3868	48.657
2.3857	48.6925
2.3846	48.719
2.3835	48.7375
2.3824	48.7692
2.3813	48.8286
2.3802	48.9051
2.3791	48.9939
2.3781	49.0856
2.377	49.1875
2.3759	49.2776
2.3748	49.3384
2.3737	49.3983
2.3726	49.4784
2.3715	49.5562
2.3704	49.6107
2.3694	49.6576
2.3683	49.709
2.3672	49.732
2.3661	49.7447
2.365	49.7598
2.364	49.7801
2.3629	49.7947
2.3618	49.7968
2.3607	49.8002
2.3597	49.7849
2.3586	49.7512
2.3575	49.7482
2.3564	49.766
2.3554	49.793
2.3543	49.8272
2.3532	49.882
2.3522	49.921
2.3511	49.9213
2.35	49.9289
2.349	49.9624
2.3479	50.0091
2.3468	50.0571
2.3458	50.1091
2.3447	50.1582
2.3436	50.1854
2.3426	50.2017
2.3415	50.2225
2.3405	50.2574
2.3394	50.2976
2.3384	50.3249
2.3373	50.3445
2.3363	50.3529
2.3352	50.3622
2.3342	50.3615
2.3331	50.3488
2.3321	50.3496
2.331	50.3557
2.33	50.3388
2.3289	50.3151
2.3279	50.3069
2.3268	50.3031
2.3258	50.2866
2.3247	50.2742
2.3237	50.2744
2.3226	50.2797
2.3216	50.2629
2.3206	50.238
2.3195	50.2163
2.3185	50.204
2.3175	50.1854
2.3164	50.1672
2.3154	50.1691
2.3144	50.1763
2.3133	50.177
2.3123	50.1723
2.3113	50.1864
2.3102	50.2271
2.3092	50.2481
2.3082	50.2538
2.3071	50.2689
2.3061	50.2764
2.3051	50.2862
2.3041	50.2895
2.303	50.2913
2.302	50.2976
2.301	50.2986
2.3	50.3051
2.299	50.3053
2.2979	50.287
2.2969	50.2892
2.2959	50.291
2.2949	50.2593
2.2939	50.2263
2.2929	50.2225
2.2918	50.2309
2.2908	50.2392
2.2898	50.2279
2.2888	50.2282
2.2878	50.2495
2.2868	50.2483
2.2858	50.2271
2.2848	50.2129
2.2838	50.2029
2.2828	50.2067
2.2818	50.1992
2.2808	50.168
2.2798	50.1394
2.2787	50.1107
2.2777	50.083
2.2767	50.0737
2.2757	50.0858
2.2747	50.0973
2.2738	50.0763
2.2728	50.0219
2.2718	49.962
2.2708	49.9313
2.2698	49.9366
2.2688	49.9598
2.2678	49.9693
2.2668	49.9585
2.2658	49.9286
2.2648	49.9203
2.2638	49.9165
2.2628	49.9132
2.2618	49.91
2.2609	49.8892
2.2599	49.8511
2.2589	49.8244
2.2579	49.8091
2.2569	49.8026
2.2559	49.7975
2.255	49.8081
2.254	49.8136
2.253	49.8005
2.252	49.7849
2.251	49.7763
2.2501	49.7937
2.2491	49.8136
2.2481	49.826
2.2471	49.8478
2.2462	49.8604
2.2452	49.8498
2.2442	49.8373
2.2433	49.8308
2.2423	49.8387
2.2413	49.8438
2.2403	49.8428
2.2394	49.8399
2.2384	49.8399
2.2374	49.8593
2.2365	49.9004
2.2355	49.9237
2.2345	49.9222
2.2336	49.9193
2.2326	49.9339
2.2317	49.9318
2.2307	49.9265
2.2297	49.9313
2.2288	49.9225
2.2278	49.8664
2.2269	49.7945
2.2259	49.7427
2.225	49.7019
2.224	49.6662
2.2231	49.6574
2.2221	49.6433
2.2211	49.61
2.2202	49.5258
2.2192	49.4219
2.2183	49.314
2.2173	49.1774
2.2164	49.0092
2.2155	48.8159
2.2145	48.5652
2.2136	48.2161
2.2126	47.7326
2.2117	47.2258
2.2107	46.7934
2.2098	46.5087
2.2088	46.4405
2.2079	46.6063
2.207	46.9413
2.206	47.3459
2.2051	47.7328
2.2041	48.0775
2.2032	48.3798
2.2023	48.6396
2.2013	48.8554
2.2004	49.0295
2.1995	49.1568
2.1985	49.2561
2.1976	49.3432
2.1967	49.3958
2.1957	49.4574
2.1948	49.5425
2.1939	49.6253
2.193	49.7289
2.192	49.8566
2.1911	50.0136
2.1902	50.2007
2.1893	50.3864
2.1883	50.5808
2.1874	50.7989
2.1865	51.0235
2.1856	51.2465
2.1846	51.4659
2.1837	51.664
2.1828	51.8437
2.1819	52.0055
2.181	52.1748
2.18	52.3612
2.1791	52.5486
2.1782	52.7304
2.1773	52.8839
2.1764	52.9969
2.1755	53.0972
2.1746	53.1862
2.1736	53.2836
2.1727	53.3728
2.1718	53.4637
2.1709	53.5726
2.17	53.6833
2.1691	53.7886
2.1682	53.8848
2.1673	53.9573
2.1664	54.01
2.1655	54.0503
2.1646	54.1001
2.1637	54.1547
2.1628	54.2018
2.1619	54.2631
2.161	54.3516
2.1601	54.461
2.1592	54.5841
2.1583	54.7071
2.1574	54.8237
2.1565	54.9327
2.1556	55.0242
2.1547	55.1342
2.1538	55.26
2.1529	55.3814
2.152	55.5065
2.1511	55.6211
2.1502	55.7668
2.1493	55.9685
2.1484	56.1898
2.1475	56.4142
2.1466	56.6291
2.1458	56.8145
2.1449	56.9593
2.144	57.065
2.1431	57.1495
2.1422	57.2207
2.1413	57.3002
2.1404	57.3817
2.1396	57.4612
2.1387	57.5289
2.1378	57.5882
2.1369	57.6559
2.136	57.7406
2.1352	57.8239
2.1343	57.8885
2.1334	57.9172
2.1325	57.939
2.1316	57.9625
2.1308	57.9962
2.1299	58.0505
2.129	58.1074
2.1281	58.1214
2.1273	58.0988
2.1264	58.049
2.1255	57.994
2.1247	57.9847
2.1238	58.0182
2.1229	58.0625
2.122	58.0885
2.1212	58.117
2.1203	58.1553
2.1194	58.1725
2.1186	58.1936
2.1177	58.2567
2.1168	58.3252
2.116	58.3433
2.1151	58.2993
2.1143	58.2484
2.1134	58.2199
2.1125	58.2168
2.1117	58.2434
2.1108	58.3027
2.11	58.3873
2.1091	58.4366
2.1082	58.4391
2.1074	58.4527
2.1065	58.4764
2.1057	58.4812
2.1048	58.4718
2.104	58.4802
2.1031	58.5159
2.1023	58.5333
2.1014	58.5287
2.1005	58.5187
2.0997	58.4987
2.0988	58.4912
2.098	58.4934
2.0971	58.4869
2.0963	58.4838
2.0955	58.5046
2.0946	58.5304
2.0938	58.541
2.0929	58.5438
2.0921	58.5582
2.0912	58.5867
2.0904	58.5764
2.0895	58.5141
2.0887	58.485
2.0879	58.4984
2.087	58.4932
2.0862	58.4874
2.0853	58.5085
2.0845	58.5292
2.0837	58.496
2.0828	58.4474
2.082	58.3644
2.0812	58.3955
2.0803	58.5707
2.0795	58.5637
2.076	58.5333
2.072	58.2996
2.068	58.2441
2.064	58.3207
2.06	58.3851
2.056	58.1324
2.052	58.0866
2.048	57.7762
2.044	57.548
2.04	57.712
2.036	57.8458
2.032	58.03
2.028	57.8482
2.024	57.3247
2.02	56.9793
2.016	56.7882
2.012	56.4723
2.008	56.1263
2.004	55.8422
2	55.4017
1.996	54.9396
1.992	54.5457
1.988	54.1253
1.984	53.7916
1.98	53.4273
1.976	52.9816
1.972	52.6311
1.968	52.157
1.964	51.6402
1.96	51.4236
1.956	50.9034
1.952	50.5385
1.948	50.0106
1.944	49.6936
1.94	49.3333
1.936	48.9714
1.932	48.6687
1.928	48.2362
1.924	48.0795
1.92	47.7862
1.916	47.766
1.912	47.7299
1.908	47.8166
1.904	48.3653
1.9	49.3537
1.896	50.3555
1.892	51.9127
1.888	53.4905
1.884	55.2786
1.88	56.7615
1.876	58.0399
1.872	59.4912
1.868	60.5977
1.864	61.7317
1.86	62.5544
1.856	63.0364
1.852	63.2318
1.848	63.5847
1.844	63.6726
1.84	63.7908
1.836	63.9294
1.832	64.034
1.828	63.9186
1.824	63.7871
1.82	63.8186
1.816	63.8526
1.812	63.8123
1.808	63.8601
1.804	63.8027
1.8	63.9579
1.796	64.1663
1.792	64.3069
1.788	64.1085
1.784	63.7877
1.78	63.7877
1.776	63.6894
1.772	63.6838
1.768	63.799
1.764	63.7908
1.76	63.9053
1.756	63.8412
1.752	63.7392
1.748	63.5473
1.744	63.6687
1.74	63.6977
1.736	63.9387
1.732	64.1232
1.728	64.2896
1.724	64.187
1.72	64.2665
1.716	64.0554
1.712	63.9601
1.708	63.7888
1.704	64.1696
1.7	64.3505
1.696	64.0741
1.692	63.7378
1.688	64.037
1.684	64.0981
1.68	63.9015
1.676	64.0583
1.672	64.3882
1.668	64.1601
1.664	64.1818
1.66	64.1792
1.656	64.0533
1.652	63.9194
1.648	64.2222
1.644	64.1017
1.64	63.9783
1.636	63.783
1.632	63.6541
1.628	63.4313
1.624	63.484
1.62	63.5807
1.616	63.5426
1.612	63.6545
1.608	63.6221
1.604	63.6574
1.6	63.6954
1.596	63.6752
1.592	63.7346
1.588	63.3925
1.584	63.354
1.58	63.5903
1.576	63.4307
1.572	63.0857
1.568	62.7482
1.564	62.6544
1.56	62.6416
1.556	62.6564
1.552	62.6831
1.548	62.6539
1.544	62.6931
1.54	62.5043
1.536	62.4693
1.532	62.1332
1.528	61.7523
1.524	61.8242
1.52	61.2712
1.516	61.1218
1.512	60.9492
1.508	60.7089
1.504	60.6856
1.5	60.4309
1.496	59.8357
1.492	59.8432
1.488	59.8759
1.484	59.7453
1.48	59.605
1.476	59.4268
1.472	59.2959
1.468	59.0617
1.464	58.8652
1.46	58.7003
1.456	58.7708
1.452	58.5824
1.448	58.3376
1.444	58.2812
1.44	58.1383
1.436	58.0612
1.432	57.8475
1.428	57.5957
1.424	57.2815
1.42	56.9921
1.416	56.62
1.412	55.9716
1.408	55.468
1.404	55.7644
1.4	55.9046
1.396	56.3156
1.392	56.8807
1.388	57.6054
1.384	58.348
1.38	59.008
1.376	59.6257
1.372	60.1457
1.368	60.5191
1.364	60.6291
1.36	60.9579
1.356	60.7156
1.352	61.0112
1.348	61.0669
1.344	61.1576
1.34	61.3942
1.336	61.3081
1.332	60.9515
1.328	60.9144
1.324	60.897
1.32	61.0069
1.316	61.0556
1.312	60.9523
1.308	60.6926
1.304	60.598
1.3	60.3502
1.296	60.3691
1.292	60.3501
1.288	60.16
1.284	60.1259
1.28	60.2728
1.276	60.1624
1.272	59.7364
1.268	59.6744
1.264	59.7312
1.26	59.659
1.256	59.441
1.252	59.418
1.248	59.5649
1.244	59.3967
1.24	59.324
1.236	59.3523
1.232	59.093
1.228	59.0763
1.224	59.1338
1.22	59.1283
1.216	59.0271
1.212	58.864
1.208	58.8303
1.204	58.7852
1.2	58.684
1.196	58.6
1.192	58.5441
1.188	58.3529
1.184	58.163
1.18	57.9728
1.176	57.9789
1.172	57.857
1.168	57.7899
1.164	57.5971
1.16	57.4709
1.156	57.3872
1.152	57.2276
1.148	57.0664
1.144	56.705
1.14	56.5333
1.136	56.3574
1.132	56.3084
1.128	56.0219
1.124	56.1027
1.12	56.0686
1.116	55.8981
1.112	55.5867
1.108	55.4389
1.104	55.0379
1.1	54.776
1.096	55.002
1.092	54.9971
1.088	55.0578
1.084	54.9022
1.08	54.7597
1.076	54.2678
1.072	53.7703
1.068	53.7026
1.064	53.763
1.06	53.6432
1.056	53.5833
1.052	53.615
1.048	53.4436
1.044	53.3267
1.04	53.0607
1.036	52.9556
1.032	52.7348
1.028	52.6112
1.024	52.5949
1.02	52.4482
1.016	52.5059
1.012	52.4655
1.008	52.4886
1.004	52.3887
1	51.9068
0.996	51.7896
0.992	51.3338
0.988	52.0357
0.984	51.8308
0.98	51.6941
0.976	51.3259
0.972	51.1814
0.968	51.2813
0.964	51.0565
0.96	50.5689
0.956	51.2324
0.952	50.8462
0.948	50.7963
0.944	50.6604
0.94	50.7021
0.936	50.6273
0.932	50.7122
0.928	50.4784
0.924	50.3141
0.92	50.4376
0.916	50.2134
0.912	50.1435
0.908	49.9583
0.904	50.1267
0.9	49.829
0.896	49.6468
0.892	49.6977
0.888	49.68
0.884	49.5641
0.88	49.4404
0.876	49.4601
0.872	49.3928
0.868	49.2192
0.864	49.1159
0.86	49.1568
0.856	49.0198
0.852	48.9645
0.848	48.73
0.844	48.5868
0.84	48.886
0.836	48.7155
0.832	48.5319
0.828	48.5942
0.824	48.7039
0.82	48.4418
0.816	48.6056
0.812	48.3736
0.808	48.1101
0.804	48.1653
0.8	48.2628
0.799	48.9108
0.798	48.9138
0.797	49.1275
0.796	48.8241
0.795	48.5035
0.794	48.6071
0.793	48.6193
0.792	48.6553
0.791	48.4276
0.79	48.4176
0.789	48.4
0.788	48.2923
0.787	48.0715
0.786	48.156
0.785	48.3716
0.784	48.3441
0.783	48.3298
0.782	48.3859
0.781	48.2262
0.78	48.1745
0.779	48.1331
0.778	47.9847
0.777	47.985
0.776	47.815
0.775	47.882
0.774	47.7076
0.773	47.4542
0.772	47.616
0.771	47.6566
0.77	47.8101
0.769	47.8051
0.768	47.9757
0.767	47.8937
0.766	47.4457
0.765	47.4291
0.764	47.3825
0.763	47.5803
0.762	47.5186
0.761	47.2469
0.76	47.0842
0.759	47.0779
0.758	47.1371
0.757	47.3733
0.756	47.3267
0.755	47.2093
0.754	47.2049
0.753	47.1434
0.752	46.9888
0.751	46.9721
0.75	46.8593
0.749	46.8593
0.748	46.6361
0.747	46.9657
0.746	46.571
0.745	46.7115
0.744	46.5021
0.743	46.6771
0.742	46.6626
0.741	46.5921
0.74	46.4409
0.739	46.6447
0.738	46.6268
0.737	46.4566
0.736	46.1576
0.735	46.0103
0.734	46.1111
0.733	45.8676
0.732	45.9172
0.731	45.8452
0.73	46.0946
0.729	45.936
0.728	46.0695
0.727	45.9135
0.726	45.7529
0.725	45.6291
0.724	45.2646
0.723	45.2661
0.722	45.626
0.721	45.3304
0.72	45.3931
0.719	45.473
0.718	45.4233
0.717	45.2981
0.716	45.0797
0.715	45.2581
0.714	45.2959
0.713	45.372
0.712	45.3605
0.711	45.2546
0.71	45.2895
0.709	44.985
0.708	44.755
0.707	44.8771
0.706	44.984
0.705	44.9762
0.704	44.8033
0.703	44.669
0.702	44.1042
0.701	44.2817
0.7	44.4642
0.699	44.489
0.698	44.8403
0.697	44.6339
0.696	44.4696
0.695	44.2576
0.694	44.2824
0.693	44.0078
0.692	43.884
0.691	43.6247
0.69	43.4171
0.689	43.6581
0.688	43.982
0.687	43.9093
0.686	43.6727
0.685	43.8459
0.684	43.8693
0.683	43.8558
0.682	43.4937
0.681	43.6326
0.68	43.5664
0.679	43.6574
0.678	43.6565
0.677	43.4329
0.676	43.42
0.675	43.5445
0.674	43.2159
0.673	43.0291
0.672	42.8772
0.671	42.7802
0.67	42.8044
0.669	42.8529
0.668	42.905
0.667	42.9406
0.666	42.8917
0.665	42.7788
0.664	42.8009
0.663	42.604
0.662	42.5637
0.661	42.7254
0.66	42.4777
0.659	42.2612
0.658	42.2895
0.657	42.2415
0.656	41.9815
0.655	42.1968
0.654	42.3031
0.653	42.1287
0.652	42.0499
0.651	42.1081
0.65	42.1425
0.649	42.0806
0.648	41.9194
0.647	41.9295
0.646	41.8917
0.645	41.6496
0.644	41.6357
0.643	41.7823
0.642	41.7585
0.641	41.7823
0.64	41.6636
0.639	41.5552
0.638	41.5042
0.637	41.3108
0.636	41.1703
0.635	41.1135
0.634	41.2967
0.633	41.0811
0.632	41.2825
0.631	41.2072
0.63	41.2307
0.629	41.1033
0.628	41.1737
0.627	41.2022
0.626	41.3789
0.625	41.0695
0.624	41.1165
0.623	40.8336
0.622	40.5983
0.621	40.5983
0.62	40.4535
0.619	40.6387
0.618	40.5948
0.617	40.6328
0.616	40.6839
0.615	40.7308
0.614	40.3424
0.613	40.3526
0.612	40.5971
0.611	40.3674
0.61	40.2224
0.609	40.1621
0.608	40.2602
0.607	40.1845
0.606	40.1088
0.605	40.2239
0.604	40.1941
0.603	40.0882
0.602	40.1124
0.601	39.9757
0.6	40.0229
0.599	39.9236
0.598	39.893
0.597	39.631
0.596	39.8391
0.595	39.6079
0.594	39.8521
0.593	40.0465
0.592	39.6848
0.591	39.5612
0.59	39.5843
0.589	39.4995
0.588	39.5919
0.587	39.8014
0.586	39.6692
0.585	39.3754
0.584	39.1891
0.583	39.1662
0.582	39.3671
0.581	39.2049
0.58	38.8931
0.579	38.8999
0.578	38.8523
0.577	38.685
0.576	38.653
0.575	38.5696
0.574	38.4738
0.573	38.6367
0.572	38.2958
0.571	38.2343
0.57	38.1867
0.569	37.9769
0.568	37.8585
0.567	37.8049
0.566	37.8105
0.565	37.5675
0.564	37.4327
0.563	37.2815
0.562	37.2321
0.561	36.9716
0.56	36.8924
0.559	36.8295
0.558	36.0737
0.557	35.9731
0.556	35.871
0.555	35.7406
0.554	35.6529
0.553	35.5648
0.552	35.4421
0.551	35.5372
0.55	35.2343
0.549	35.1755
0.548	35.011
0.547	34.9054
0.546	34.8177
0.545	34.7256
0.544	34.5001
0.543	34.317
0.542	34.1136
0.541	34.1565
0.54	34.0232
0.539	33.7858
0.538	33.4857
0.537	33.6207
0.536	33.4506
0.535	33.3329
0.534	32.9359
0.533	32.6413
0.532	32.567
0.531	32.4726
0.53	32.4283
0.529	32.2572
0.528	32.0872
0.527	32.1023
0.526	31.9686
0.525	31.9464
0.524	31.4345
0.523	31.1088
0.522	30.9967
0.521	30.9768
0.52	30.8397
0.519	30.7316
0.518	30.6277
0.517	30.3226
0.516	30.3866
0.515	29.9802
0.514	29.8123
0.513	29.8977
0.512	29.6578
0.511	29.3324
0.51	29.089
0.509	28.79
0.508	28.6234
0.507	28.543
0.506	28.4787
0.505	28.5762
0.504	28.539
0.503	28.1771
0.502	28.2627
0.501	27.9879
0.5	28.0353
0.499	27.8179
0.498	27.6372
0.497	27.4045
0.496	27.3688
0.495	27.2978
0.494	27.2687
0.493	27.0794
0.492	26.9199
0.491	26.9136
0.49	26.861
0.489	26.6769
0.488	26.5407
0.487	26.4787
0.486	26.4927
0.485	26.2834
0.484	26.1466
0.483	26.1002
0.482	26.1026
0.481	25.9207
0.48	25.997
0.479	25.821
0.478	25.8705
0.477	25.7648
0.476	25.9146
0.475	25.6045
0.474	25.7066
0.473	25.3758
0.472	25.4995
0.471	25.4709
0.47	25.1258
0.469	25.439
0.468	25.2302
0.467	25.2726
0.466	25.2294
0.465	25.089
0.464	24.9016
0.463	24.7473
0.462	24.8183
0.461	24.9605
0.46	24.5972
0.459	24.0949
0.458	24.0601
0.457	24.1253
0.456	24.0368
0.455	24.0379
0.454	24.0889
0.453	24.0259
0.452	24.1436
0.451	23.9769
0.45	23.8213
0.449	23.7324
0.448	23.7455
0.447	23.6049
0.446	23.431
0.445	23.2846
0.444	23.1819
0.443	23.0595
0.442	22.7962
0.441	22.8184
0.44	22.7941
0.439	22.6016
0.438	22.4535
0.437	22.0949
0.436	21.9764
0.435	21.8186
0.434	21.7801
0.433	21.6713
0.432	21.5601
0.431	21.4658
0.43	21.2833
0.429	20.798
0.428	20.7631
0.427	20.7631
0.426	20.5142
0.425	20.2865
0.424	20.2478
0.423	20.0672
0.422	19.9715
0.421	19.8358
0.42	19.8167
0.419	19.5618
0.418	19.5035
0.417	19.1365
0.416	19.1939
0.415	19.2327
0.414	19.0309
0.413	18.8216
0.412	18.5454
0.411	18.6225
0.41	18.5157
0.409	18.4686
0.408	18.3351
0.407	18.2963
0.406	18.2275
0.405	18.0065
0.404	17.8655
0.403	17.9652
0.402	17.8343
0.401	17.5288
0.4	17.4673

