Name: 14148.183
Type: Soil
Class: Lunar
Subclass: Transitional
Particle Size: Fine
Sample No.: 14148.183
Owner: JHU
Wavelength range: IR
Origin: Apollo 14 landing site via the NASA Lunar Sample Repository at Johnson 
Space Center, Houston, TX.
Description:  This sample is one of a suite of soils at the Apollo 14 site 
representing major element chemistry transitional between the highlands and 
maria.  It has the greatest exposure age of the three soils of that suite 
(Is/FeO=74).


Measurement:  Directional (10 degree) hemispherical reflectance
First Column:  X
Second Column:  Y
X Units:  Wavelength (micrometers)
Y Units:  Reflectance (percent)
First X Value:  14.011
Last X Value:  2.079
Number of X Values:  2124
Additional information:  None

14.011	0.76430
13.973	0.84960
13.936	0.83680
13.899	0.84120
13.861	0.80390
13.824	0.87360
13.788	0.94430
13.751	0.93010
13.715	0.92080
13.679	0.93010
13.643	0.95120
13.607	1.0398
13.571	1.1052
13.536	1.0803
13.500	1.1093
13.465	1.0833
13.430	1.0485
13.396	1.0924
13.361	1.1426
13.327	1.1188
13.293	1.1130
13.259	1.1363
13.225	1.1975
13.191	1.2174
13.158	1.1882
13.124	1.1882
13.091	1.2234
13.058	1.2529
13.026	1.2748
12.993	1.2871
12.960	1.3368
12.928	1.3691
12.896	1.3826
12.864	1.3822
12.832	1.3812
12.800	1.4036
12.769	1.4790
12.737	1.5341
12.706	1.5403
12.675	1.6098
12.644	1.6535
12.614	1.6568
12.583	1.7151
12.552	1.7509
12.522	1.7765
12.492	1.8017
12.462	1.7966
12.432	1.8501
12.402	1.9324
12.373	1.9883
12.343	2.0093
12.314	2.0163
12.285	2.0401
12.256	2.0446
12.227	2.0440
12.198	2.0722
12.169	2.0981
12.141	2.0617
12.113	2.0468
12.084	2.0494
12.056	2.0523
12.028	2.0530
12.000	2.0120
11.973	1.9750
11.945	2.0082
11.918	2.0437
11.890	2.0358
11.863	1.9930
11.836	1.9978
11.809	2.0262
11.782	2.0262
11.755	2.0368
11.729	2.0561
11.702	2.0456
11.676	2.0493
11.650	2.0594
11.624	2.0788
11.598	2.0810
11.572	2.0614
11.546	2.0720
11.520	2.0685
11.495	2.0554
11.469	2.0683
11.444	2.0577
11.419	2.0712
11.394	2.0856
11.369	2.0615
11.344	2.0664
11.319	2.0705
11.294	2.0406
11.270	2.0320
11.245	2.0330
11.221	2.0396
11.197	2.0216
11.173	1.9996
11.149	2.0005
11.125	1.9951
11.101	1.9726
11.077	1.9582
11.054	1.9817
11.030	1.9781
11.007	1.9849
10.983	1.9994
10.960	1.9942
10.937	1.9851
10.914	1.9967
10.891	1.9949
10.868	1.9964
10.846	2.0063
10.823	2.0119
10.800	2.0211
10.778	2.0283
10.755	2.0198
10.733	1.9955
10.711	2.0155
10.689	2.0045
10.667	1.9625
10.645	1.9776
10.623	1.9621
10.602	1.9386
10.580	1.9328
10.558	1.9018
10.537	1.8911
10.516	1.8988
10.494	1.8889
10.473	1.8672
10.452	1.8508
10.431	1.8317
10.410	1.7957
10.389	1.7957
10.368	1.7952
10.348	1.7569
10.327	1.7308
10.306	1.7102
10.286	1.7164
10.266	1.7170
10.245	1.6897
10.225	1.6747
10.205	1.6829
10.185	1.6688
10.165	1.6276
10.145	1.6418
10.125	1.6687
10.106	1.6516
10.086	1.6145
10.066	1.5645
10.047	1.5564
10.027	1.5972
10.008	1.5866
9.9887	1.5723
9.9695	1.5975
9.9504	1.6009
9.9313	1.5826
9.9123	1.5748
9.8934	1.5751
9.8746	1.5433
9.8558	1.5439
9.8371	1.5738
9.8185	1.5635
9.7999	1.5699
9.7814	1.5658
9.7630	1.5518
9.7447	1.5823
9.7264	1.5709
9.7082	1.5315
9.6900	1.5280
9.6719	1.5383
9.6539	1.5134
9.6360	1.5318
9.6181	1.5623
9.6003	1.5403
9.5825	1.5456
9.5649	1.5545
9.5472	1.5426
9.5297	1.5509
9.5122	1.5687
9.4948	1.5532
9.4774	1.5302
9.4601	1.5410
9.4429	1.5409
9.4257	1.5052
9.4086	1.4953
9.3916	1.4822
9.3746	1.4806
9.3577	1.4852
9.3408	1.4871
9.3240	1.4823
9.3073	1.4769
9.2906	1.4673
9.2740	1.4366
9.2574	1.4501
9.2409	1.4362
9.2245	1.4328
9.2081	1.4472
9.1918	1.4110
9.1755	1.3797
9.1593	1.4324
9.1431	1.4573
9.1270	1.4176
9.1110	1.3487
9.0950	1.3171
9.0791	1.3345
9.0632	1.3513
9.0474	1.3220
9.0316	1.2787
9.0159	1.2366
9.0003	1.2549
8.9847	1.2679
8.9691	1.2263
8.9536	1.1854
8.9382	1.1652
8.9228	1.1731
8.9075	1.1540
8.8922	1.0993
8.8770	1.0879
8.8618	1.0640
8.8467	1.0002
8.8316	1.0011
8.8166	1.0282
8.8016	0.99870
8.7867	0.95020
8.7718	0.94030
8.7570	0.93730
8.7422	0.94510
8.7275	0.94320
8.7129	0.95520
8.6982	0.96520
8.6837	0.91340
8.6692	0.87790
8.6547	0.89070
8.6403	0.90820
8.6259	0.88880
8.6116	0.86590
8.5973	0.86530
8.5830	0.81200
8.5688	0.79130
8.5547	0.80260
8.5406	0.79890
8.5266	0.77230
8.5126	0.75780
8.4986	0.76880
8.4847	0.75190
8.4708	0.72270
8.4570	0.69980
8.4432	0.72350
8.4295	0.73100
8.4158	0.68970
8.4022	0.65320
8.3886	0.63530
8.3750	0.64940
8.3615	0.65270
8.3481	0.62620
8.3347	0.62060
8.3213	0.62720
8.3079	0.58960
8.2946	0.59580
8.2814	0.62670
8.2682	0.61640
8.2550	0.61740
8.2419	0.60970
8.2288	0.61400
8.2158	0.63690
8.2028	0.64120
8.1898	0.65660
8.1769	0.67780
8.1640	0.68050
8.1512	0.70940
8.1384	0.74260
8.1256	0.73890
8.1129	0.75130
8.1002	0.79040
8.0876	0.83980
8.0750	0.90540
8.0624	0.96610
8.0499	1.0126
8.0374	1.0398
8.0250	1.0782
8.0126	1.1513
8.0002	1.2220
7.9879	1.2837
7.9756	1.3588
7.9634	1.4289
7.9512	1.4904
7.9390	1.5632
7.9268	1.6406
7.9147	1.7415
7.9027	1.8402
7.8906	1.9011
7.8786	1.9942
7.8667	2.0746
7.8548	2.1496
7.8429	2.2655
7.8310	2.3475
7.8192	2.4242
7.8075	2.5436
7.7957	2.6443
7.7840	2.7347
7.7723	2.8414
7.7607	2.9351
7.7491	3.0089
7.7375	3.0999
7.7260	3.2137
7.7145	3.3091
7.7031	3.3954
7.6916	3.5048
7.6802	3.6261
7.6689	3.7345
7.6575	3.8352
7.6462	3.9142
7.6350	3.9936
7.6238	4.0790
7.6126	4.1746
7.6014	4.2861
7.5903	4.3921
7.5792	4.4739
7.5681	4.5557
7.5571	4.6768
7.5461	4.7649
7.5351	4.8428
7.5242	4.9435
7.5133	5.0251
7.5024	5.1145
7.4916	5.2125
7.4807	5.3238
7.4700	5.4304
7.4592	5.5294
7.4485	5.6049
7.4378	5.6854
7.4272	5.7982
7.4165	5.9058
7.4059	5.9765
7.3954	6.0501
7.3848	6.1379
7.3743	6.2329
7.3639	6.3275
7.3534	6.4193
7.3430	6.5002
7.3326	6.5962
7.3223	6.6759
7.3119	6.7503
7.3016	6.8262
7.2914	6.9169
7.2811	7.0052
7.2709	7.0726
7.2607	7.1340
7.2506	7.2197
7.2404	7.3121
7.2303	7.3909
7.2203	7.4722
7.2102	7.5413
7.2002	7.5952
7.1902	7.6550
7.1803	7.7269
7.1703	7.8002
7.1604	7.8859
7.1506	7.9582
7.1407	8.0372
7.1309	8.1009
7.1211	8.1445
7.1113	8.2262
7.1016	8.3078
7.0919	8.3672
7.0822	8.4263
7.0725	8.4907
7.0629	8.5306
7.0533	8.5942
7.0437	8.6854
7.0341	8.7336
7.0246	8.7849
7.0151	8.8334
7.0056	8.8892
6.9962	8.9648
6.9867	9.0212
6.9773	9.0776
6.9679	9.1521
6.9586	9.1904
6.9493	9.2583
6.9400	9.3139
6.9307	9.3572
6.9214	9.4088
6.9122	9.4707
6.9030	9.5311
6.8938	9.5747
6.8847	9.6265
6.8755	9.6865
6.8664	9.7106
6.8573	9.7458
6.8483	9.8210
6.8393	9.8739
6.8302	9.8815
6.8213	9.8966
6.8123	9.9614
6.8034	10.011
6.7944	10.035
6.7855	10.067
6.7767	10.111
6.7678	10.153
6.7590	10.195
6.7502	10.229
6.7414	10.242
6.7327	10.267
6.7239	10.291
6.7152	10.316
6.7065	10.346
6.6979	10.383
6.6892	10.403
6.6806	10.415
6.6720	10.412
6.6634	10.434
6.6549	10.480
6.6464	10.463
6.6378	10.447
6.6294	10.479
6.6209	10.528
6.6124	10.569
6.6040	10.615
6.5956	10.645
6.5872	10.668
6.5789	10.676
6.5705	10.695
6.5622	10.732
6.5539	10.779
6.5456	10.810
6.5374	10.840
6.5292	10.852
6.5209	10.864
6.5128	10.895
6.5046	10.941
6.4964	10.958
6.4883	10.968
6.4802	10.986
6.4721	11.006
6.4640	11.059
6.4560	11.097
6.4480	11.122
6.4399	11.125
6.4320	11.127
6.4240	11.123
6.4160	11.119
6.4081	11.141
6.4002	11.150
6.3923	11.156
6.3844	11.205
6.3766	11.215
6.3687	11.187
6.3609	11.191
6.3531	11.182
6.3454	11.156
6.3376	11.202
6.3299	11.220
6.3221	11.195
6.3144	11.196
6.3068	11.216
6.2991	11.243
6.2914	11.240
6.2838	11.264
6.2762	11.283
6.2686	11.269
6.2611	11.288
6.2535	11.316
6.2460	11.315
6.2385	11.314
6.2310	11.343
6.2235	11.359
6.2160	11.358
6.2086	11.374
6.2011	11.413
6.1937	11.443
6.1863	11.443
6.1790	11.451
6.1716	11.475
6.1643	11.482
6.1570	11.541
6.1496	11.593
6.1424	11.605
6.1351	11.621
6.1278	11.669
6.1206	11.707
6.1134	11.720
6.1062	11.742
6.0990	11.776
6.0918	11.824
6.0847	11.855
6.0776	11.857
6.0704	11.888
6.0633	11.924
6.0563	11.932
6.0492	11.927
6.0421	11.992
6.0351	12.045
6.0281	12.042
6.0211	12.078
6.0141	12.132
6.0071	12.172
6.0002	12.200
5.9932	12.227
5.9863	12.300
5.9794	12.361
5.9725	12.395
5.9657	12.452
5.9588	12.530
5.9520	12.619
5.9451	12.697
5.9383	12.725
5.9315	12.768
5.9247	12.848
5.9180	12.922
5.9112	13.008
5.9045	13.063
5.8978	13.097
5.8911	13.185
5.8844	13.226
5.8777	13.264
5.8711	13.339
5.8644	13.393
5.8578	13.446
5.8512	13.470
5.8446	13.508
5.8380	13.577
5.8314	13.639
5.8249	13.677
5.8184	13.727
5.8118	13.784
5.8053	13.828
5.7988	13.894
5.7923	13.954
5.7859	13.974
5.7794	14.013
5.7730	14.037
5.7666	14.061
5.7602	14.119
5.7538	14.164
5.7474	14.193
5.7410	14.234
5.7347	14.282
5.7283	14.321
5.7220	14.319
5.7157	14.345
5.7094	14.377
5.7031	14.393
5.6969	14.411
5.6906	14.426
5.6844	14.446
5.6782	14.462
5.6719	14.477
5.6657	14.497
5.6596	14.521
5.6534	14.544
5.6472	14.567
5.6411	14.602
5.6349	14.633
5.6288	14.664
5.6227	14.707
5.6166	14.756
5.6106	14.786
5.6045	14.806
5.5984	14.853
5.5924	14.891
5.5864	14.914
5.5804	14.943
5.5744	14.990
5.5684	15.040
5.5624	15.055
5.5564	15.092
5.5505	15.124
5.5445	15.140
5.5386	15.166
5.5327	15.182
5.5268	15.217
5.5209	15.226
5.5151	15.233
5.5092	15.249
5.5033	15.245
5.4975	15.242
5.4917	15.280
5.4859	15.319
5.4801	15.330
5.4743	15.331
5.4685	15.320
5.4628	15.321
5.4570	15.353
5.4513	15.389
5.4455	15.386
5.4398	15.385
5.4341	15.417
5.4284	15.445
5.4228	15.454
5.4171	15.497
5.4114	15.541
5.4058	15.563
5.4002	15.586
5.3945	15.611
5.3889	15.613
5.3833	15.630
5.3778	15.680
5.3722	15.732
5.3666	15.744
5.3611	15.762
5.3555	15.768
5.3500	15.777
5.3445	15.824
5.3390	15.874
5.3335	15.867
5.3280	15.859
5.3225	15.894
5.3171	15.936
5.3116	15.972
5.3062	15.996
5.3008	16.020
5.2954	16.041
5.2900	16.064
5.2846	16.102
5.2792	16.131
5.2738	16.149
5.2684	16.173
5.2631	16.205
5.2578	16.230
5.2524	16.257
5.2471	16.303
5.2418	16.338
5.2365	16.384
5.2312	16.432
5.2260	16.488
5.2207	16.521
5.2154	16.554
5.2102	16.606
5.2050	16.649
5.1998	16.684
5.1945	16.725
5.1893	16.760
5.1842	16.813
5.1790	16.859
5.1738	16.904
5.1686	16.952
5.1635	17.009
5.1584	17.072
5.1532	17.133
5.1481	17.204
5.1430	17.265
5.1379	17.306
5.1328	17.390
5.1277	17.467
5.1227	17.528
5.1176	17.577
5.1126	17.612
5.1075	17.671
5.1025	17.746
5.0975	17.805
5.0925	17.874
5.0875	17.933
5.0825	17.995
5.0775	18.041
5.0726	18.105
5.0676	18.153
5.0627	18.209
5.0577	18.299
5.0528	18.357
5.0479	18.396
5.0430	18.449
5.0380	18.503
5.0332	18.559
5.0283	18.630
5.0234	18.690
5.0185	18.726
5.0137	18.796
5.0088	18.856
5.0040	18.903
4.9992	18.977
4.9944	19.045
4.9896	19.097
4.9848	19.134
4.9800	19.172
4.9752	19.254
4.9704	19.329
4.9657	19.374
4.9609	19.444
4.9562	19.533
4.9514	19.582
4.9467	19.623
4.9420	19.693
4.9373	19.760
4.9326	19.816
4.9279	19.874
4.9232	19.937
4.9186	19.976
4.9139	20.018
4.9092	20.096
4.9046	20.166
4.9000	20.200
4.8953	20.234
4.8907	20.290
4.8861	20.345
4.8815	20.392
4.8769	20.448
4.8723	20.503
4.8678	20.557
4.8632	20.615
4.8586	20.654
4.8541	20.716
4.8495	20.793
4.8450	20.845
4.8405	20.879
4.8360	20.919
4.8315	20.963
4.8270	21.028
4.8225	21.097
4.8180	21.125
4.8135	21.183
4.8090	21.255
4.8046	21.305
4.8001	21.319
4.7957	21.373
4.7913	21.434
4.7868	21.464
4.7824	21.510
4.7780	21.572
4.7736	21.639
4.7692	21.656
4.7648	21.685
4.7605	21.748
4.7561	21.797
4.7517	21.826
4.7474	21.852
4.7431	21.916
4.7387	21.983
4.7344	22.021
4.7301	22.061
4.7258	22.097
4.7215	22.149
4.7172	22.202
4.7129	22.249
4.7086	22.306
4.7043	22.336
4.7000	22.368
4.6958	22.426
4.6915	22.479
4.6873	22.521
4.6831	22.544
4.6788	22.605
4.6746	22.647
4.6704	22.680
4.6662	22.745
4.6620	22.784
4.6578	22.815
4.6536	22.868
4.6495	22.935
4.6453	22.975
4.6411	23.012
4.6370	23.064
4.6328	23.106
4.6287	23.156
4.6246	23.198
4.6205	23.229
4.6163	23.261
4.6122	23.295
4.6081	23.337
4.6040	23.388
4.6000	23.424
4.5959	23.464
4.5918	23.503
4.5877	23.512
4.5837	23.537
4.5796	23.570
4.5756	23.603
4.5716	23.651
4.5675	23.691
4.5635	23.706
4.5595	23.721
4.5555	23.769
4.5515	23.794
4.5475	23.807
4.5435	23.819
4.5395	23.849
4.5356	23.888
4.5316	23.915
4.5276	23.933
4.5237	23.962
4.5197	23.993
4.5158	24.001
4.5119	24.008
4.5080	24.046
4.5040	24.084
4.5001	24.081
4.4962	24.068
4.4923	24.071
4.4884	24.104
4.4846	24.126
4.4807	24.151
4.4768	24.176
4.4730	24.194
4.4691	24.196
4.4652	24.212
4.4614	24.243
4.4576	24.253
4.4537	24.257
4.4499	24.275
4.4461	24.278
4.4423	24.286
4.4385	24.309
4.4347	24.312
4.4309	24.329
4.4271	24.356
4.4233	24.351
4.4196	24.349
4.4158	24.350
4.4120	24.363
4.4083	24.391
4.4045	24.410
4.4008	24.429
4.3971	24.426
4.3934	24.419
4.3896	24.444
4.3859	24.476
4.3822	24.482
4.3785	24.484
4.3748	24.472
4.3711	24.476
4.3674	24.501
4.3638	24.528
4.3601	24.536
4.3564	24.531
4.3528	24.539
4.3491	24.555
4.3455	24.573
4.3418	24.576
4.3382	24.587
4.3346	24.596
4.3310	24.619
4.3273	24.631
4.3237	24.641
4.3201	24.648
4.3165	24.659
4.3129	24.672
4.3094	24.676
4.3058	24.682
4.3022	24.700
4.2986	24.716
4.2951	24.738
4.2915	24.741
4.2880	24.736
4.2844	24.745
4.2809	24.749
4.2774	24.743
4.2738	24.767
4.2703	24.792
4.2668	24.778
4.2633	24.753
4.2598	24.763
4.2563	24.771
4.2528	24.776
4.2493	24.790
4.2458	24.817
4.2424	24.825
4.2389	24.828
4.2354	24.853
4.2320	24.852
4.2285	24.850
4.2251	24.839
4.2216	24.846
4.2182	24.848
4.2148	24.836
4.2113	24.846
4.2079	24.858
4.2045	24.854
4.2011	24.856
4.1977	24.855
4.1943	24.847
4.1909	24.852
4.1875	24.863
4.1841	24.859
4.1808	24.849
4.1774	24.844
4.1740	24.854
4.1707	24.863
4.1673	24.855
4.1640	24.853
4.1606	24.849
4.1573	24.867
4.1540	24.878
4.1506	24.881
4.1473	24.877
4.1440	24.884
4.1407	24.878
4.1374	24.878
4.1341	24.856
4.1308	24.849
4.1275	24.857
4.1242	24.864
4.1209	24.868
4.1177	24.887
4.1144	24.881
4.1111	24.878
4.1079	24.884
4.1046	24.877
4.1014	24.870
4.0981	24.883
4.0949	24.884
4.0917	24.870
4.0884	24.870
4.0852	24.868
4.0820	24.879
4.0788	24.911
4.0756	24.908
4.0724	24.889
4.0692	24.892
4.0660	24.884
4.0628	24.886
4.0596	24.881
4.0565	24.891
4.0533	24.912
4.0501	24.914
4.0470	24.902
4.0438	24.896
4.0406	24.891
4.0375	24.881
4.0344	24.884
4.0312	24.890
4.0281	24.906
4.0250	24.913
4.0218	24.891
4.0187	24.857
4.0156	24.845
4.0125	24.874
4.0094	24.891
4.0063	24.876
4.0032	24.875
4.0001	24.898
3.9970	24.898
3.9940	24.885
3.9909	24.901
3.9878	24.910
3.9847	24.878
3.9817	24.867
3.9786	24.868
3.9756	24.868
3.9725	24.902
3.9695	24.894
3.9665	24.866
3.9634	24.880
3.9604	24.882
3.9574	24.866
3.9544	24.876
3.9513	24.892
3.9483	24.877
3.9453	24.873
3.9423	24.874
3.9393	24.858
3.9363	24.860
3.9333	24.881
3.9304	24.888
3.9274	24.871
3.9244	24.866
3.9214	24.845
3.9185	24.830
3.9155	24.827
3.9126	24.828
3.9096	24.808
3.9067	24.799
3.9037	24.786
3.9008	24.794
3.8979	24.804
3.8949	24.799
3.8920	24.813
3.8891	24.811
3.8862	24.820
3.8833	24.812
3.8804	24.786
3.8775	24.794
3.8746	24.808
3.8717	24.785
3.8688	24.768
3.8659	24.777
3.8630	24.776
3.8601	24.772
3.8573	24.766
3.8544	24.741
3.8515	24.722
3.8487	24.729
3.8458	24.727
3.8430	24.712
3.8401	24.725
3.8373	24.748
3.8344	24.740
3.8316	24.715
3.8288	24.712
3.8259	24.717
3.8231	24.719
3.8203	24.700
3.8175	24.679
3.8147	24.674
3.8119	24.656
3.8091	24.658
3.8063	24.679
3.8035	24.672
3.8007	24.643
3.7979	24.630
3.7951	24.637
3.7924	24.640
3.7896	24.643
3.7868	24.627
3.7841	24.623
3.7813	24.623
3.7785	24.619
3.7758	24.598
3.7730	24.556
3.7703	24.542
3.7676	24.558
3.7648	24.581
3.7621	24.580
3.7594	24.561
3.7566	24.546
3.7539	24.537
3.7512	24.511
3.7485	24.494
3.7458	24.503
3.7431	24.504
3.7404	24.497
3.7377	24.503
3.7350	24.493
3.7323	24.498
3.7296	24.489
3.7269	24.474
3.7242	24.492
3.7216	24.482
3.7189	24.462
3.7162	24.450
3.7136	24.443
3.7109	24.440
3.7083	24.419
3.7056	24.404
3.7030	24.392
3.7003	24.414
3.6977	24.399
3.6950	24.359
3.6924	24.357
3.6898	24.390
3.6872	24.397
3.6845	24.347
3.6819	24.332
3.6793	24.332
3.6767	24.315
3.6741	24.318
3.6715	24.339
3.6689	24.330
3.6663	24.285
3.6637	24.266
3.6611	24.261
3.6585	24.256
3.6560	24.277
3.6534	24.286
3.6508	24.264
3.6482	24.242
3.6457	24.216
3.6431	24.213
3.6406	24.219
3.6380	24.206
3.6355	24.193
3.6329	24.191
3.6304	24.195
3.6278	24.179
3.6253	24.163
3.6227	24.170
3.6202	24.165
3.6177	24.138
3.6152	24.142
3.6127	24.138
3.6101	24.126
3.6076	24.124
3.6051	24.113
3.6026	24.081
3.6001	24.081
3.5976	24.090
3.5951	24.076
3.5926	24.063
3.5901	24.063
3.5876	24.067
3.5852	24.044
3.5827	24.023
3.5802	24.007
3.5777	24.010
3.5753	24.014
3.5728	23.994
3.5704	23.997
3.5679	24.003
3.5654	23.977
3.5630	23.981
3.5605	24.003
3.5581	23.987
3.5557	23.970
3.5532	23.948
3.5508	23.900
3.5484	23.891
3.5459	23.925
3.5435	23.932
3.5411	23.904
3.5387	23.889
3.5363	23.851
3.5338	23.845
3.5314	23.852
3.5290	23.841
3.5266	23.865
3.5242	23.875
3.5218	23.855
3.5195	23.836
3.5171	23.859
3.5147	23.878
3.5123	23.862
3.5099	23.843
3.5075	23.825
3.5052	23.847
3.5028	23.859
3.5004	23.801
3.4981	23.765
3.4957	23.761
3.4934	23.765
3.4910	23.775
3.4887	23.769
3.4863	23.753
3.4840	23.772
3.4816	23.774
3.4793	23.736
3.4770	23.717
3.4746	23.693
3.4723	23.674
3.4700	23.699
3.4677	23.702
3.4653	23.669
3.4630	23.635
3.4607	23.643
3.4584	23.650
3.4561	23.614
3.4538	23.592
3.4515	23.651
3.4492	23.651
3.4469	23.631
3.4446	23.615
3.4423	23.596
3.4400	23.596
3.4378	23.642
3.4355	23.619
3.4332	23.566
3.4309	23.580
3.4287	23.583
3.4264	23.577
3.4241	23.580
3.4219	23.558
3.4196	23.537
3.4174	23.534
3.4151	23.545
3.4129	23.525
3.4106	23.498
3.4084	23.516
3.4061	23.514
3.4039	23.483
3.4017	23.462
3.3994	23.458
3.3972	23.436
3.3950	23.434
3.3928	23.413
3.3906	23.382
3.3883	23.375
3.3861	23.375
3.3839	23.370
3.3817	23.344
3.3795	23.335
3.3773	23.335
3.3751	23.342
3.3729	23.322
3.3707	23.279
3.3685	23.261
3.3663	23.284
3.3641	23.274
3.3620	23.233
3.3598	23.217
3.3576	23.222
3.3554	23.199
3.3533	23.180
3.3511	23.164
3.3489	23.158
3.3468	23.157
3.3446	23.138
3.3425	23.107
3.3403	23.067
3.3382	23.051
3.3360	23.050
3.3339	23.041
3.3317	23.030
3.3296	23.043
3.3274	23.061
3.3253	23.012
3.3232	22.987
3.3210	22.968
3.3189	22.957
3.3168	22.953
3.3147	22.971
3.3126	22.946
3.3104	22.918
3.3083	22.921
3.3062	22.938
3.3041	22.934
3.3020	22.902
3.2999	22.864
3.2978	22.866
3.2957	22.892
3.2936	22.877
3.2915	22.844
3.2894	22.862
3.2874	22.856
3.2853	22.781
3.2832	22.771
3.2811	22.800
3.2790	22.793
3.2770	22.780
3.2749	22.774
3.2728	22.761
3.2708	22.727
3.2687	22.709
3.2666	22.729
3.2646	22.731
3.2625	22.728
3.2605	22.682
3.2584	22.657
3.2564	22.665
3.2543	22.693
3.2523	22.688
3.2503	22.650
3.2482	22.629
3.2462	22.649
3.2442	22.656
3.2421	22.618
3.2401	22.567
3.2381	22.562
3.2361	22.590
3.2340	22.589
3.2320	22.540
3.2300	22.510
3.2280	22.503
3.2260	22.506
3.2240	22.491
3.2220	22.491
3.2200	22.506
3.2180	22.471
3.2160	22.452
3.2140	22.455
3.2120	22.472
3.2100	22.438
3.2080	22.393
3.2060	22.388
3.2040	22.395
3.2021	22.397
3.2001	22.365
3.1981	22.343
3.1961	22.354
3.1942	22.321
3.1922	22.278
3.1902	22.287
3.1883	22.303
3.1863	22.304
3.1844	22.294
3.1824	22.310
3.1805	22.297
3.1785	22.244
3.1766	22.228
3.1746	22.231
3.1727	22.219
3.1707	22.203
3.1688	22.184
3.1669	22.171
3.1649	22.186
3.1630	22.169
3.1611	22.125
3.1591	22.133
3.1572	22.149
3.1553	22.116
3.1534	22.093
3.1515	22.105
3.1495	22.104
3.1476	22.084
3.1457	22.060
3.1438	22.061
3.1419	22.046
3.1400	22.017
3.1381	21.993
3.1362	22.020
3.1343	22.045
3.1324	22.019
3.1305	21.972
3.1286	21.971
3.1268	21.956
3.1249	21.954
3.1230	21.981
3.1211	21.978
3.1192	21.930
3.1174	21.915
3.1155	21.917
3.1136	21.927
3.1117	21.913
3.1099	21.898
3.1080	21.837
3.1061	21.806
3.1043	21.845
3.1024	21.875
3.1006	21.858
3.0987	21.834
3.0969	21.840
3.0950	21.827
3.0932	21.805
3.0913	21.813
3.0895	21.816
3.0876	21.814
3.0858	21.786
3.0840	21.744
3.0821	21.722
3.0803	21.734
3.0785	21.727
3.0766	21.704
3.0748	21.712
3.0730	21.701
3.0712	21.677
3.0694	21.643
3.0675	21.694
3.0657	21.705
3.0639	21.675
3.0621	21.667
3.0603	21.653
3.0585	21.649
3.0567	21.603
3.0549	21.600
3.0531	21.634
3.0513	21.652
3.0495	21.658
3.0477	21.606
3.0459	21.577
3.0441	21.596
3.0423	21.621
3.0406	21.600
3.0388	21.590
3.0370	21.579
3.0352	21.577
3.0334	21.581
3.0317	21.545
3.0299	21.497
3.0281	21.480
3.0264	21.478
3.0246	21.483
3.0228	21.448
3.0211	21.428
3.0193	21.490
3.0176	21.493
3.0158	21.451
3.0140	21.421
3.0123	21.430
3.0105	21.430
3.0088	21.388
3.0070	21.388
3.0053	21.399
3.0036	21.368
3.0018	21.321
3.0001	21.340
2.9984	21.361
2.9966	21.339
2.9949	21.311
2.9932	21.280
2.9914	21.312
2.9897	21.306
2.9880	21.245
2.9863	21.238
2.9845	21.246
2.9828	21.249
2.9811	21.290
2.9794	21.289
2.9777	21.238
2.9760	21.234
2.9743	21.228
2.9726	21.248
2.9709	21.265
2.9692	21.201
2.9675	21.145
2.9658	21.181
2.9641	21.219
2.9624	21.199
2.9607	21.153
2.9590	21.129
2.9573	21.129
2.9556	21.140
2.9539	21.153
2.9523	21.164
2.9506	21.151
2.9489	21.122
2.9472	21.141
2.9455	21.156
2.9439	21.141
2.9422	21.122
2.9405	21.098
2.9389	21.082
2.9372	21.090
2.9355	21.096
2.9339	21.094
2.9322	21.097
2.9306	21.101
2.9289	21.093
2.9272	21.054
2.9256	21.036
2.9239	21.051
2.9223	21.039
2.9207	21.033
2.9190	21.020
2.9174	21.031
2.9157	21.069
2.9141	21.028
2.9124	20.992
2.9108	20.941
2.9092	20.925
2.9075	20.949
2.9059	20.997
2.9043	21.007
2.9027	20.950
2.9010	20.918
2.8994	20.954
2.8978	20.962
2.8962	20.927
2.8946	20.933
2.8929	20.956
2.8913	20.941
2.8897	20.963
2.8881	20.950
2.8865	20.907
2.8849	20.899
2.8833	20.924
2.8817	20.878
2.8801	20.874
2.8785	20.924
2.8769	20.929
2.8753	20.898
2.8737	20.884
2.8721	20.890
2.8705	20.895
2.8689	20.895
2.8673	20.894
2.8658	20.898
2.8642	20.912
2.8626	20.888
2.8610	20.834
2.8594	20.830
2.8579	20.850
2.8563	20.835
2.8547	20.829
2.8531	20.825
2.8516	20.840
2.8500	20.832
2.8484	20.811
2.8469	20.850
2.8453	20.877
2.8437	20.860
2.8422	20.808
2.8406	20.790
2.8391	20.813
2.8375	20.800
2.8360	20.792
2.8344	20.786
2.8329	20.794
2.8313	20.828
2.8298	20.820
2.8282	20.806
2.8267	20.804
2.8252	20.809
2.8236	20.812
2.8221	20.821
2.8205	20.793
2.8190	20.801
2.8175	20.850
2.8159	20.842
2.8144	20.827
2.8129	20.860
2.8114	20.879
2.8098	20.850
2.8083	20.855
2.8068	20.877
2.8053	20.858
2.8038	20.871
2.8022	20.889
2.8007	20.916
2.7992	20.945
2.7977	20.951
2.7962	20.952
2.7947	20.965
2.7932	20.948
2.7917	20.955
2.7902	20.995
2.7887	21.040
2.7872	21.057
2.7857	21.057
2.7842	21.078
2.7827	21.076
2.7812	21.097
2.7797	21.111
2.7782	21.098
2.7767	21.152
2.7752	21.205
2.7738	21.222
2.7723	21.210
2.7708	21.202
2.7693	21.252
2.7678	21.281
2.7664	21.291
2.7649	21.330
2.7634	21.373
2.7619	21.437
2.7605	21.493
2.7590	21.531
2.7575	21.508
2.7561	21.471
2.7546	21.525
2.7531	21.593
2.7517	21.617
2.7502	21.605
2.7488	21.599
2.7473	21.663
2.7458	21.736
2.7444	21.760
2.7429	21.782
2.7415	21.762
2.7400	21.772
2.7386	21.836
2.7371	21.891
2.7357	21.891
2.7343	21.864
2.7328	21.917
2.7314	21.971
2.7299	21.973
2.7285	21.982
2.7271	22.034
2.7256	22.072
2.7242	22.038
2.7228	22.035
2.7213	22.040
2.7199	22.051
2.7185	22.067
2.7171	22.103
2.7156	22.156
2.7142	22.156
2.7128	22.165
2.7114	22.139
2.7100	22.127
2.7085	22.164
2.7071	22.182
2.7057	22.186
2.7043	22.220
2.7029	22.236
2.7015	22.223
2.7001	22.199
2.6987	22.193
2.6973	22.229
2.6959	22.214
2.6945	22.158
2.6931	22.121
2.6917	22.152
2.6903	22.201
2.6889	22.181
2.6875	22.186
2.6861	22.218
2.6847	22.199
2.6833	22.160
2.6819	22.154
2.6805	22.144
2.6791	22.141
2.6778	22.160
2.6764	22.173
2.6750	22.197
2.6736	22.161
2.6722	22.127
2.6709	22.132
2.6695	22.167
2.6681	22.181
2.6667	22.191
2.6654	22.171
2.6640	22.177
2.6626	22.216
2.6613	22.214
2.6599	22.202
2.6585	22.210
2.6572	22.246
2.6558	22.224
2.6545	22.167
2.6531	22.145
2.6517	22.152
2.6504	22.159
2.6490	22.127
2.6477	22.103
2.6463	22.094
2.6450	22.101
2.6436	22.118
2.6423	22.124
2.6409	22.096
2.6396	22.104
2.6382	22.139
2.6369	22.133
2.6356	22.095
2.6342	22.055
2.6329	22.059
2.6315	22.063
2.6302	22.033
2.6289	22.033
2.6275	22.034
2.6262	22.034
2.6249	22.052
2.6236	22.045
2.6222	22.058
2.6209	22.027
2.6196	21.996
2.6183	21.953
2.6169	21.933
2.6156	21.958
2.6143	21.953
2.6130	21.963
2.6117	21.971
2.6103	21.944
2.6090	21.917
2.6077	21.921
2.6064	21.924
2.6051	21.891
2.6038	21.885
2.6025	21.938
2.6012	21.927
2.5999	21.871
2.5986	21.871
2.5973	21.889
2.5960	21.850
2.5947	21.831
2.5934	21.852
2.5921	21.881
2.5908	21.864
2.5895	21.858
2.5882	21.848
2.5869	21.812
2.5856	21.804
2.5843	21.803
2.5830	21.808
2.5817	21.794
2.5805	21.779
2.5792	21.798
2.5779	21.784
2.5766	21.751
2.5753	21.735
2.5741	21.718
2.5728	21.701
2.5715	21.699
2.5702	21.719
2.5690	21.761
2.5677	21.746
2.5664	21.735
2.5651	21.690
2.5639	21.672
2.5626	21.656
2.5613	21.667
2.5601	21.665
2.5588	21.628
2.5575	21.642
2.5563	21.639
2.5550	21.635
2.5538	21.658
2.5525	21.643
2.5513	21.619
2.5500	21.602
2.5487	21.569
2.5475	21.571
2.5462	21.592
2.5450	21.573
2.5437	21.572
2.5425	21.589
2.5413	21.580
2.5400	21.549
2.5388	21.539
2.5375	21.529
2.5363	21.514
2.5350	21.526
2.5338	21.559
2.5326	21.541
2.5313	21.500
2.5301	21.446
2.5289	21.439
2.5276	21.471
2.5264	21.463
2.5252	21.421
2.5239	21.430
2.5227	21.434
2.5215	21.418
2.5202	21.418
2.5190	21.372
2.5178	21.332
2.5166	21.370
2.5154	21.406
2.5141	21.401
2.5129	21.352
2.5117	21.345
2.5105	21.345
2.5093	21.376
2.5081	21.379
2.5068	21.335
2.5056	21.327
2.5044	21.356
2.5032	21.333
2.5020	21.315
2.5008	21.318
2.4996	21.295
2.4984	21.284
2.4972	21.255
2.4960	21.249
2.4948	21.228
2.4936	21.230
2.4924	21.238
2.4912	21.199
2.4900	21.217
2.4888	21.236
2.4876	21.222
2.4864	21.206
2.4852	21.183
2.4840	21.183
2.4828	21.167
2.4816	21.125
2.4805	21.151
2.4793	21.165
2.4781	21.137
2.4769	21.140
2.4757	21.128
2.4745	21.075
2.4734	21.052
2.4722	21.074
2.4710	21.107
2.4698	21.112
2.4686	21.075
2.4675	21.064
2.4663	21.062
2.4651	21.045
2.4640	21.033
2.4628	21.029
2.4616	21.018
2.4604	20.996
2.4593	20.988
2.4581	20.967
2.4569	20.929
2.4558	20.964
2.4546	20.992
2.4535	20.984
2.4523	20.970
2.4511	20.982
2.4500	20.943
2.4488	20.892
2.4477	20.897
2.4465	20.910
2.4454	20.903
2.4442	20.885
2.4431	20.894
2.4419	20.868
2.4408	20.862
2.4396	20.873
2.4385	20.861
2.4373	20.831
2.4362	20.824
2.4350	20.792
2.4339	20.786
2.4327	20.777
2.4316	20.791
2.4305	20.798
2.4293	20.778
2.4282	20.785
2.4270	20.796
2.4259	20.763
2.4248	20.735
2.4236	20.746
2.4225	20.735
2.4214	20.722
2.4202	20.731
2.4191	20.716
2.4180	20.709
2.4169	20.737
2.4157	20.702
2.4146	20.677
2.4135	20.662
2.4124	20.661
2.4112	20.643
2.4101	20.618
2.4090	20.603
2.4079	20.591
2.4068	20.580
2.4056	20.590
2.4045	20.600
2.4034	20.609
2.4023	20.563
2.4012	20.535
2.4001	20.566
2.3990	20.561
2.3979	20.523
2.3967	20.539
2.3956	20.535
2.3945	20.506
2.3934	20.534
2.3923	20.498
2.3912	20.466
2.3901	20.481
2.3890	20.479
2.3879	20.458
2.3868	20.420
2.3857	20.423
2.3846	20.469
2.3835	20.479
2.3824	20.474
2.3813	20.444
2.3802	20.426
2.3791	20.422
2.3781	20.379
2.3770	20.373
2.3759	20.390
2.3748	20.367
2.3737	20.342
2.3726	20.335
2.3715	20.355
2.3704	20.368
2.3694	20.316
2.3683	20.311
2.3672	20.307
2.3661	20.293
2.3650	20.302
2.3640	20.300
2.3629	20.262
2.3618	20.281
2.3607	20.288
2.3597	20.254
2.3586	20.229
2.3575	20.239
2.3564	20.251
2.3554	20.224
2.3543	20.207
2.3532	20.195
2.3522	20.181
2.3511	20.182
2.3500	20.220
2.3490	20.236
2.3479	20.177
2.3468	20.119
2.3458	20.129
2.3447	20.181
2.3436	20.157
2.3426	20.109
2.3415	20.107
2.3405	20.108
2.3394	20.085
2.3384	20.039
2.3373	20.027
2.3363	20.056
2.3352	20.035
2.3342	20.061
2.3331	20.060
2.3321	20.038
2.3310	20.077
2.3300	20.054
2.3289	19.983
2.3279	19.984
2.3268	20.025
2.3258	20.043
2.3247	20.000
2.3237	19.954
2.3226	19.950
2.3216	19.991
2.3206	19.979
2.3195	19.951
2.3185	19.974
2.3175	19.974
2.3164	19.934
2.3154	19.946
2.3144	19.928
2.3133	19.874
2.3123	19.893
2.3113	19.913
2.3102	19.903
2.3092	19.876
2.3082	19.862
2.3071	19.865
2.3061	19.866
2.3051	19.865
2.3041	19.850
2.3030	19.783
2.3020	19.752
2.3010	19.776
2.3000	19.788
2.2990	19.796
2.2979	19.758
2.2969	19.771
2.2959	19.806
2.2949	19.788
2.2939	19.766
2.2929	19.750
2.2918	19.732
2.2908	19.716
2.2898	19.718
2.2888	19.719
2.2878	19.671
2.2868	19.679
2.2858	19.715
2.2848	19.690
2.2838	19.685
2.2828	19.666
2.2818	19.649
2.2808	19.641
2.2798	19.661
2.2787	19.640
2.2777	19.620
2.2767	19.633
2.2757	19.603
2.2747	19.590
2.2738	19.597
2.2728	19.593
2.2718	19.574
2.2708	19.541
2.2698	19.517
2.2688	19.524
2.2678	19.533
2.2668	19.532
2.2658	19.539
2.2648	19.552
2.2638	19.550
2.2628	19.502
2.2618	19.445
2.2609	19.471
2.2599	19.484
2.2589	19.428
2.2579	19.437
2.2569	19.476
2.2559	19.463
2.2550	19.422
2.2540	19.400
2.2530	19.404
2.2520	19.381
2.2510	19.376
2.2501	19.394
2.2491	19.402
2.2481	19.365
2.2471	19.302
2.2462	19.318
2.2452	19.344
2.2442	19.302
2.2433	19.297
2.2423	19.309
2.2413	19.287
2.2403	19.283
2.2394	19.280
2.2384	19.326
2.2374	19.322
2.2365	19.310
2.2355	19.313
2.2345	19.303
2.2336	19.245
2.2326	19.217
2.2317	19.215
2.2307	19.209
2.2297	19.188
2.2288	19.195
2.2278	19.227
2.2269	19.214
2.2259	19.218
2.2250	19.148
2.2240	19.097
2.2231	19.136
2.2221	19.131
2.2211	19.117
2.2202	19.157
2.2192	19.157
2.2183	19.130
2.2173	19.112
2.2164	19.098
2.2155	19.108
2.2145	19.093
2.2136	19.085
2.2126	19.116
2.2117	19.110
2.2107	19.063
2.2098	19.108
2.2088	19.147
2.2079	19.039
2.2070	19.023
2.2060	19.028
2.2051	19.011
2.2041	19.039
2.2032	19.035
2.2023	19.014
2.2013	19.013
2.2004	19.032
2.1995	18.990
2.1985	18.943
2.1976	18.927
2.1967	18.945
2.1957	18.951
2.1948	18.949
2.1939	18.931
2.1930	18.932
2.1920	18.938
2.1911	18.918
2.1902	18.893
2.1893	18.888
2.1883	18.900
2.1874	18.924
2.1865	18.982
2.1856	18.973
2.1846	18.911
2.1837	18.845
2.1828	18.824
2.1819	18.839
2.1810	18.874
2.1800	18.886
2.1791	18.865
2.1782	18.818
2.1773	18.798
2.1764	18.833
2.1755	18.870
2.1746	18.841
2.1736	18.806
2.1727	18.828
2.1718	18.808
2.1709	18.758
2.1700	18.762
2.1691	18.746
2.1682	18.719
2.1673	18.733
2.1664	18.744
2.1655	18.693
2.1646	18.689
2.1637	18.732
2.1628	18.774
2.1619	18.740
2.1610	18.651
2.1601	18.654
2.1592	18.664
2.1583	18.675
2.1574	18.696
2.1565	18.628
2.1556	18.625
2.1547	18.662
2.1538	18.650
2.1529	18.628
2.1520	18.577
2.1511	18.552
2.1502	18.623
2.1493	18.683
2.1484	18.617
2.1475	18.565
2.1466	18.587
2.1458	18.600
2.1449	18.537
2.1440	18.483
2.1431	18.530
2.1422	18.551
2.1413	18.574
2.1404	18.585
2.1396	18.502
2.1387	18.460
2.1378	18.446
2.1369	18.496
2.1360	18.526
2.1352	18.490
2.1343	18.455
2.1334	18.429
2.1325	18.466
2.1316	18.462
2.1308	18.472
2.1299	18.492
2.1290	18.470
2.1281	18.423
2.1273	18.400
2.1264	18.433
2.1255	18.439
2.1247	18.439
2.1238	18.377
2.1229	18.344
2.1220	18.413
2.1212	18.422
2.1203	18.440
2.1194	18.456
2.1186	18.386
2.1177	18.359
2.1168	18.373
2.1160	18.328
2.1151	18.270
2.1143	18.292
2.1134	18.285
2.1125	18.302
2.1117	18.391
2.1108	18.360
2.1100	18.317
2.1091	18.321
2.1082	18.314
2.1074	18.285
2.1065	18.296
2.1057	18.334
2.1048	18.322
2.1040	18.263
2.1031	18.196
2.1023	18.174
2.1014	18.264
2.1005	18.316
2.0997	18.293
2.0988	18.270
2.0980	18.279
2.0971	18.254
2.0963	18.194
2.0955	18.212
2.0946	18.193
2.0938	18.218
2.0929	18.243
2.0921	18.140
2.0912	18.124
2.0904	18.208
2.0895	18.231
2.0887	18.192
2.0879	18.186
2.0870	18.188
2.0862	18.152
2.0853	18.179
2.0845	18.185
2.0837	18.123
2.0828	18.126
2.0820	18.169
2.0812	18.144
2.0803	18.082
2.0795	18.052

