Name: 10084.1939
Type: Soil
Class: Lunar
Subclass: Maria
Particle Size: Fine
Sample No.: 10084.1939
Owner: JHU
Wavelength range: IR
Origin: Apollo 11 landing site via the NASA Lunar Sample Repository at Johnson 
Space Center, Houston, TX.
Description:  This is the only sample from the Apollo 11 mare site.  This sample 
has a large exposure age (Is/FeO=78).




Measurement:  Directional (10 degree) hemispherical reflectance
First Column:  X
Second Column:  Y
X Units:  Wavelength (micrometers)
Y Units:  Reflectance (percent)
First X Value:  14.011
Last X Value:  2.079
Number of X Values:  2124
Additional information:  None.

14.011	1.4886
13.973	1.4341
13.936	1.3963
13.899	1.4841
13.861	1.4664
13.824	1.3966
13.788	1.3128
13.751	1.3826
13.715	1.3645
13.679	1.4047
13.643	1.4111
13.607	1.4458
13.571	1.4348
13.536	1.4274
13.500	1.4342
13.465	1.4486
13.430	1.4275
13.396	1.4585
13.361	1.4889
13.327	1.4546
13.293	1.4278
13.259	1.4401
13.225	1.4244
13.191	1.4234
13.158	1.4210
13.124	1.4287
13.091	1.4628
13.058	1.4998
13.026	1.4656
12.993	1.4642
12.960	1.5236
12.928	1.5490
12.896	1.5727
12.864	1.5777
12.832	1.5271
12.800	1.5310
12.769	1.6062
12.737	1.6801
12.706	1.7146
12.675	1.7557
12.644	1.7405
12.614	1.7678
12.583	1.8052
12.552	1.8485
12.522	1.8738
12.492	1.8951
12.462	1.9036
12.432	1.9355
12.402	1.9642
12.373	2.0053
12.343	2.0384
12.314	2.0476
12.285	2.0473
12.256	2.0719
12.227	2.0994
12.198	2.1165
12.169	2.0969
12.141	2.0921
12.113	2.1111
12.084	2.1287
12.056	2.1211
12.028	2.1238
12.000	2.0959
11.973	2.0716
11.945	2.0786
11.918	2.1134
11.890	2.1091
11.863	2.1015
11.836	2.1279
11.809	2.1373
11.782	2.1349
11.755	2.1471
11.729	2.1466
11.702	2.1654
11.676	2.1663
11.650	2.1650
11.624	2.1821
11.598	2.2007
11.572	2.1901
11.546	2.2131
11.520	2.2085
11.495	2.2060
11.469	2.2231
11.444	2.2308
11.419	2.2462
11.394	2.2396
11.369	2.2163
11.344	2.2062
11.319	2.2122
11.294	2.2011
11.270	2.2001
11.245	2.2106
11.221	2.2221
11.197	2.2185
11.173	2.1995
11.149	2.2028
11.125	2.1948
11.101	2.1703
11.077	2.1564
11.054	2.1896
11.030	2.1948
11.007	2.1799
10.983	2.1764
10.960	2.1888
10.937	2.1813
10.914	2.1782
10.891	2.1816
10.868	2.1966
10.846	2.1939
10.823	2.1836
10.800	2.1859
10.778	2.1853
10.755	2.1607
10.733	2.1493
10.711	2.1582
10.689	2.1691
10.667	2.1420
10.645	2.1385
10.623	2.1192
10.602	2.1100
10.580	2.1128
10.558	2.0996
10.537	2.0826
10.516	2.0865
10.494	2.0687
10.473	2.0507
10.452	2.0416
10.431	2.0394
10.410	2.0265
10.389	2.0352
10.368	2.0107
10.348	1.9775
10.327	1.9604
10.306	1.9476
10.286	1.9344
10.266	1.9212
10.245	1.8863
10.225	1.8716
10.205	1.8781
10.185	1.8724
10.165	1.8588
10.145	1.8679
10.125	1.8777
10.106	1.8787
10.086	1.8537
10.066	1.8197
10.047	1.7955
10.027	1.8228
10.008	1.8341
9.9887	1.7959
9.9695	1.7679
9.9504	1.7756
9.9313	1.7795
9.9123	1.7973
9.8934	1.8226
9.8746	1.8074
9.8558	1.7754
9.8371	1.7578
9.8185	1.7407
9.7999	1.7651
9.7814	1.7721
9.7630	1.7442
9.7447	1.7448
9.7264	1.7576
9.7082	1.7567
9.6900	1.7508
9.6719	1.7212
9.6539	1.6934
9.6360	1.7163
9.6181	1.7375
9.6003	1.7135
9.5825	1.7341
9.5649	1.7212
9.5472	1.7114
9.5297	1.7145
9.5122	1.7253
9.4948	1.7382
9.4774	1.7213
9.4601	1.7213
9.4429	1.7392
9.4257	1.7429
9.4086	1.7571
9.3916	1.7349
9.3746	1.7271
9.3577	1.7244
9.3408	1.7392
9.3240	1.7392
9.3073	1.7273
9.2906	1.7192
9.2740	1.7361
9.2574	1.7395
9.2409	1.7246
9.2245	1.6995
9.2081	1.7146
9.1918	1.7217
9.1755	1.7172
9.1593	1.7292
9.1431	1.7243
9.1270	1.6841
9.1110	1.6689
9.0950	1.6205
9.0791	1.5901
9.0632	1.6294
9.0474	1.6306
9.0316	1.5786
9.0159	1.5476
9.0003	1.5251
8.9847	1.5034
8.9691	1.4643
8.9536	1.4428
8.9382	1.4089
8.9228	1.3995
8.9075	1.3568
8.8922	1.3267
8.8770	1.3017
8.8618	1.2715
8.8467	1.2389
8.8316	1.2458
8.8166	1.2278
8.8016	1.1800
8.7867	1.1510
8.7718	1.1602
8.7570	1.1538
8.7422	1.1450
8.7275	1.1435
8.7129	1.1394
8.6982	1.1451
8.6837	1.1202
8.6692	1.0928
8.6547	1.1088
8.6403	1.1082
8.6259	1.0883
8.6116	1.0837
8.5973	1.0996
8.5830	1.0796
8.5688	1.0811
8.5547	1.0823
8.5406	1.0767
8.5266	1.0821
8.5126	1.0732
8.4986	1.0711
8.4847	1.0895
8.4708	1.0969
8.4570	1.0874
8.4432	1.0919
8.4295	1.0884
8.4158	1.0686
8.4022	1.0762
8.3886	1.1076
8.3750	1.1389
8.3615	1.1546
8.3481	1.1600
8.3347	1.1752
8.3213	1.2174
8.3079	1.2221
8.2946	1.2615
8.2814	1.3148
8.2682	1.3290
8.2550	1.3408
8.2419	1.3715
8.2288	1.4205
8.2158	1.4691
8.2028	1.5259
8.1898	1.5982
8.1769	1.6414
8.1640	1.6765
8.1512	1.7328
8.1384	1.7908
8.1256	1.8448
8.1129	1.9135
8.1002	2.0019
8.0876	2.0858
8.0750	2.1603
8.0624	2.2390
8.0499	2.3222
8.0374	2.3971
8.0250	2.4827
8.0126	2.5924
8.0002	2.6965
7.9879	2.8005
7.9756	2.8975
7.9634	3.0094
7.9512	3.1124
7.9390	3.1992
7.9268	3.2918
7.9147	3.4100
7.9027	3.5179
7.8906	3.6196
7.8786	3.7207
7.8667	3.8082
7.8548	3.9209
7.8429	4.0247
7.8310	4.0959
7.8192	4.1825
7.8075	4.2760
7.7957	4.3715
7.7840	4.4563
7.7723	4.5405
7.7607	4.6174
7.7491	4.6906
7.7375	4.7765
7.7260	4.8780
7.7145	4.9802
7.7031	5.0640
7.6916	5.1420
7.6802	5.2169
7.6689	5.2815
7.6575	5.3760
7.6462	5.4571
7.6350	5.5268
7.6238	5.6010
7.6126	5.6818
7.6014	5.7488
7.5903	5.8198
7.5792	5.8836
7.5681	5.9594
7.5571	6.0568
7.5461	6.1180
7.5351	6.1809
7.5242	6.2662
7.5133	6.3465
7.5024	6.4221
7.4916	6.4818
7.4807	6.5411
7.4700	6.6007
7.4592	6.6640
7.4485	6.7464
7.4378	6.8186
7.4272	6.8805
7.4165	6.9471
7.4059	7.0016
7.3954	7.0396
7.3848	7.1103
7.3743	7.2002
7.3639	7.2483
7.3534	7.2886
7.3430	7.3551
7.3326	7.4238
7.3223	7.4755
7.3119	7.5248
7.3016	7.5864
7.2914	7.6402
7.2811	7.6830
7.2709	7.7465
7.2607	7.7930
7.2506	7.8546
7.2404	7.9227
7.2303	7.9553
7.2203	7.9879
7.2102	8.0197
7.2002	8.0780
7.1902	8.1443
7.1803	8.1912
7.1703	8.2120
7.1604	8.2758
7.1506	8.3325
7.1407	8.3721
7.1309	8.4113
7.1211	8.4375
7.1113	8.4907
7.1016	8.5582
7.0919	8.5993
7.0822	8.6202
7.0725	8.6614
7.0629	8.6954
7.0533	8.7170
7.0437	8.7631
7.0341	8.8265
7.0246	8.8686
7.0151	8.8999
7.0056	8.9283
6.9962	8.9812
6.9867	9.0331
6.9773	9.0833
6.9679	9.1005
6.9586	9.1201
6.9493	9.1727
6.9400	9.2271
6.9307	9.2803
6.9214	9.3198
6.9122	9.3447
6.9030	9.3737
6.8938	9.4128
6.8847	9.4540
6.8755	9.4640
6.8664	9.4517
6.8573	9.4854
6.8483	9.5638
6.8393	9.5985
6.8302	9.6091
6.8213	9.6403
6.8123	9.7051
6.8034	9.7326
6.7944	9.6936
6.7855	9.6941
6.7767	9.7333
6.7678	9.7641
6.7590	9.8228
6.7502	9.8433
6.7414	9.8393
6.7327	9.8286
6.7239	9.8368
6.7152	9.8377
6.7065	9.8514
6.6979	9.8802
6.6892	9.8576
6.6806	9.8548
6.6720	9.8858
6.6634	9.9057
6.6549	9.9218
6.6464	9.8669
6.6378	9.8111
6.6294	9.8653
6.6209	9.9376
6.6124	9.9624
6.6040	9.9757
6.5956	9.9733
6.5872	9.9830
6.5789	9.9461
6.5705	9.9098
6.5622	9.9817
6.5539	10.029
6.5456	10.024
6.5374	10.049
6.5292	10.064
6.5209	10.041
6.5128	10.066
6.5046	10.067
6.4964	9.9966
6.4883	10.009
6.4802	10.077
6.4721	10.115
6.4640	10.175
6.4560	10.199
6.4480	10.216
6.4399	10.203
6.4320	10.192
6.4240	10.179
6.4160	10.097
6.4081	10.150
6.4002	10.266
6.3923	10.288
6.3844	10.296
6.3766	10.308
6.3687	10.321
6.3609	10.361
6.3531	10.344
6.3454	10.299
6.3376	10.353
6.3299	10.412
6.3221	10.405
6.3144	10.411
6.3068	10.430
6.2991	10.468
6.2914	10.480
6.2838	10.482
6.2762	10.493
6.2686	10.492
6.2611	10.488
6.2535	10.501
6.2460	10.505
6.2385	10.515
6.2310	10.556
6.2235	10.581
6.2160	10.565
6.2086	10.579
6.2011	10.612
6.1937	10.593
6.1863	10.549
6.1790	10.595
6.1716	10.652
6.1643	10.650
6.1570	10.665
6.1496	10.703
6.1424	10.723
6.1351	10.740
6.1278	10.762
6.1206	10.759
6.1134	10.735
6.1062	10.779
6.0990	10.833
6.0918	10.878
6.0847	10.890
6.0776	10.844
6.0704	10.858
6.0633	10.915
6.0563	10.876
6.0492	10.793
6.0421	10.906
6.0351	11.027
6.0281	11.049
6.0211	11.081
6.0141	11.088
6.0071	11.127
6.0002	11.154
5.9932	11.162
5.9863	11.213
5.9794	11.253
5.9725	11.259
5.9657	11.293
5.9588	11.386
5.9520	11.453
5.9451	11.452
5.9383	11.387
5.9315	11.434
5.9247	11.550
5.9180	11.611
5.9112	11.668
5.9045	11.661
5.8978	11.619
5.8911	11.688
5.8844	11.689
5.8777	11.709
5.8711	11.832
5.8644	11.864
5.8578	11.904
5.8512	11.937
5.8446	11.964
5.8380	11.995
5.8314	12.002
5.8249	12.003
5.8184	12.064
5.8118	12.149
5.8053	12.185
5.7988	12.216
5.7923	12.274
5.7859	12.310
5.7794	12.329
5.7730	12.311
5.7666	12.276
5.7602	12.358
5.7538	12.436
5.7474	12.446
5.7410	12.478
5.7347	12.510
5.7283	12.541
5.7220	12.549
5.7157	12.553
5.7094	12.559
5.7031	12.597
5.6969	12.610
5.6906	12.620
5.6844	12.646
5.6782	12.634
5.6719	12.645
5.6657	12.678
5.6596	12.683
5.6534	12.696
5.6472	12.686
5.6411	12.679
5.6349	12.732
5.6288	12.773
5.6227	12.806
5.6166	12.827
5.6106	12.838
5.6045	12.853
5.5984	12.885
5.5924	12.895
5.5864	12.882
5.5804	12.874
5.5744	12.919
5.5684	12.963
5.5624	12.945
5.5564	12.945
5.5505	12.968
5.5445	13.000
5.5386	13.021
5.5327	13.021
5.5268	13.009
5.5209	13.009
5.5151	13.038
5.5092	13.048
5.5033	13.033
5.4975	13.012
5.4917	13.013
5.4859	13.033
5.4801	13.029
5.4743	13.016
5.4685	12.993
5.4628	12.992
5.4570	13.017
5.4513	13.026
5.4455	13.022
5.4398	13.015
5.4341	13.007
5.4284	12.996
5.4228	12.972
5.4171	12.986
5.4114	13.004
5.4058	13.019
5.4002	13.027
5.3945	13.016
5.3889	13.018
5.3833	13.022
5.3778	13.034
5.3722	13.038
5.3666	13.032
5.3611	13.035
5.3555	13.017
5.3500	12.983
5.3445	12.998
5.3390	13.038
5.3335	13.045
5.3280	13.030
5.3225	13.031
5.3171	13.046
5.3116	13.060
5.3062	13.081
5.3008	13.102
5.2954	13.101
5.2900	13.118
5.2846	13.157
5.2792	13.163
5.2738	13.180
5.2684	13.203
5.2631	13.229
5.2578	13.241
5.2524	13.264
5.2471	13.300
5.2418	13.315
5.2365	13.329
5.2312	13.369
5.2260	13.401
5.2207	13.424
5.2154	13.425
5.2102	13.438
5.2050	13.485
5.1998	13.527
5.1945	13.561
5.1893	13.587
5.1842	13.616
5.1790	13.632
5.1738	13.639
5.1686	13.664
5.1635	13.695
5.1584	13.701
5.1532	13.706
5.1481	13.741
5.1430	13.771
5.1379	13.797
5.1328	13.831
5.1277	13.859
5.1227	13.875
5.1176	13.886
5.1126	13.899
5.1075	13.923
5.1025	13.959
5.0975	13.986
5.0925	14.009
5.0875	14.014
5.0825	14.026
5.0775	14.052
5.0726	14.083
5.0676	14.110
5.0627	14.153
5.0577	14.181
5.0528	14.205
5.0479	14.229
5.0430	14.258
5.0380	14.297
5.0332	14.321
5.0283	14.348
5.0234	14.384
5.0185	14.407
5.0137	14.439
5.0088	14.481
5.0040	14.517
4.9992	14.548
4.9944	14.568
4.9896	14.596
4.9848	14.622
4.9800	14.643
4.9752	14.676
4.9704	14.698
4.9657	14.732
4.9609	14.782
4.9562	14.818
4.9514	14.843
4.9467	14.871
4.9420	14.906
4.9373	14.925
4.9326	14.938
4.9279	14.967
4.9232	15.027
4.9186	15.070
4.9139	15.087
4.9092	15.104
4.9046	15.123
4.9000	15.165
4.8953	15.203
4.8907	15.229
4.8861	15.261
4.8815	15.270
4.8769	15.282
4.8723	15.310
4.8678	15.333
4.8632	15.369
4.8586	15.396
4.8541	15.426
4.8495	15.455
4.8450	15.478
4.8405	15.495
4.8360	15.510
4.8315	15.539
4.8270	15.570
4.8225	15.598
4.8180	15.614
4.8135	15.636
4.8090	15.664
4.8046	15.690
4.8001	15.695
4.7957	15.706
4.7913	15.738
4.7868	15.745
4.7824	15.760
4.7780	15.785
4.7736	15.822
4.7692	15.838
4.7648	15.838
4.7605	15.864
4.7561	15.909
4.7517	15.931
4.7474	15.939
4.7431	15.960
4.7387	15.992
4.7344	16.013
4.7301	16.035
4.7258	16.041
4.7215	16.055
4.7172	16.084
4.7129	16.112
4.7086	16.138
4.7043	16.162
4.7000	16.174
4.6958	16.183
4.6915	16.224
4.6873	16.250
4.6831	16.256
4.6788	16.276
4.6746	16.290
4.6704	16.305
4.6662	16.329
4.6620	16.331
4.6578	16.343
4.6536	16.371
4.6495	16.413
4.6453	16.444
4.6411	16.443
4.6370	16.457
4.6328	16.473
4.6287	16.473
4.6246	16.484
4.6205	16.516
4.6163	16.540
4.6122	16.545
4.6081	16.541
4.6040	16.561
4.6000	16.578
4.5959	16.586
4.5918	16.610
4.5877	16.624
4.5837	16.625
4.5796	16.626
4.5756	16.634
4.5716	16.657
4.5675	16.675
4.5635	16.676
4.5595	16.676
4.5555	16.697
4.5515	16.709
4.5475	16.711
4.5435	16.705
4.5395	16.715
4.5356	16.726
4.5316	16.739
4.5276	16.747
4.5237	16.750
4.5197	16.763
4.5158	16.770
4.5119	16.764
4.5080	16.771
4.5040	16.789
4.5001	16.786
4.4962	16.775
4.4923	16.794
4.4884	16.808
4.4846	16.803
4.4807	16.810
4.4768	16.815
4.4730	16.815
4.4691	16.805
4.4652	16.805
4.4614	16.822
4.4576	16.821
4.4537	16.820
4.4499	16.840
4.4461	16.833
4.4423	16.824
4.4385	16.839
4.4347	16.831
4.4309	16.844
4.4271	16.853
4.4233	16.855
4.4196	16.847
4.4158	16.829
4.4120	16.835
4.4083	16.843
4.4045	16.854
4.4008	16.877
4.3971	16.867
4.3934	16.846
4.3896	16.872
4.3859	16.883
4.3822	16.862
4.3785	16.866
4.3748	16.861
4.3711	16.864
4.3674	16.875
4.3638	16.885
4.3601	16.897
4.3564	16.890
4.3528	16.884
4.3491	16.882
4.3455	16.883
4.3418	16.878
4.3382	16.886
4.3346	16.892
4.3310	16.887
4.3273	16.888
4.3237	16.888
4.3201	16.894
4.3165	16.908
4.3129	16.906
4.3094	16.907
4.3058	16.919
4.3022	16.933
4.2986	16.934
4.2951	16.928
4.2915	16.933
4.2880	16.930
4.2844	16.939
4.2809	16.954
4.2774	16.945
4.2738	16.937
4.2703	16.932
4.2668	16.945
4.2633	16.937
4.2598	16.929
4.2563	16.922
4.2528	16.911
4.2493	16.920
4.2458	16.930
4.2424	16.932
4.2389	16.946
4.2354	16.957
4.2320	16.938
4.2285	16.942
4.2251	16.948
4.2216	16.944
4.2182	16.927
4.2148	16.918
4.2113	16.928
4.2079	16.921
4.2045	16.912
4.2011	16.902
4.1977	16.899
4.1943	16.901
4.1909	16.898
4.1875	16.900
4.1841	16.909
4.1808	16.893
4.1774	16.880
4.1740	16.895
4.1707	16.897
4.1673	16.894
4.1640	16.872
4.1606	16.872
4.1573	16.894
4.1540	16.887
4.1506	16.874
4.1473	16.881
4.1440	16.901
4.1407	16.888
4.1374	16.881
4.1341	16.887
4.1308	16.888
4.1275	16.876
4.1242	16.871
4.1209	16.858
4.1177	16.870
4.1144	16.876
4.1111	16.861
4.1079	16.865
4.1046	16.868
4.1014	16.866
4.0981	16.872
4.0949	16.881
4.0917	16.872
4.0884	16.855
4.0852	16.855
4.0820	16.858
4.0788	16.854
4.0756	16.845
4.0724	16.858
4.0692	16.857
4.0660	16.839
4.0628	16.841
4.0596	16.850
4.0565	16.863
4.0533	16.868
4.0501	16.858
4.0470	16.847
4.0438	16.834
4.0406	16.829
4.0375	16.820
4.0344	16.811
4.0312	16.818
4.0281	16.828
4.0250	16.823
4.0218	16.817
4.0187	16.821
4.0156	16.818
4.0125	16.805
4.0094	16.803
4.0063	16.808
4.0032	16.806
4.0001	16.818
3.9970	16.829
3.9940	16.806
3.9909	16.800
3.9878	16.822
3.9847	16.817
3.9817	16.800
3.9786	16.791
3.9756	16.792
3.9725	16.795
3.9695	16.783
3.9665	16.781
3.9634	16.788
3.9604	16.776
3.9574	16.785
3.9544	16.803
3.9513	16.791
3.9483	16.777
3.9453	16.766
3.9423	16.753
3.9393	16.743
3.9363	16.753
3.9333	16.769
3.9304	16.763
3.9274	16.745
3.9244	16.735
3.9214	16.736
3.9185	16.740
3.9155	16.756
3.9126	16.754
3.9096	16.710
3.9067	16.693
3.9037	16.701
3.9008	16.712
3.8979	16.720
3.8949	16.715
3.8920	16.710
3.8891	16.700
3.8862	16.694
3.8833	16.684
3.8804	16.688
3.8775	16.693
3.8746	16.683
3.8717	16.677
3.8688	16.682
3.8659	16.679
3.8630	16.683
3.8601	16.668
3.8573	16.652
3.8544	16.640
3.8515	16.632
3.8487	16.628
3.8458	16.627
3.8430	16.647
3.8401	16.659
3.8373	16.646
3.8344	16.633
3.8316	16.617
3.8288	16.609
3.8259	16.612
3.8231	16.611
3.8203	16.600
3.8175	16.608
3.8147	16.631
3.8119	16.619
3.8091	16.589
3.8063	16.587
3.8035	16.586
3.8007	16.569
3.7979	16.562
3.7951	16.567
3.7924	16.575
3.7896	16.581
3.7868	16.565
3.7841	16.554
3.7813	16.544
3.7785	16.538
3.7758	16.533
3.7730	16.518
3.7703	16.520
3.7676	16.535
3.7648	16.545
3.7621	16.529
3.7594	16.515
3.7566	16.510
3.7539	16.514
3.7512	16.502
3.7485	16.483
3.7458	16.484
3.7431	16.469
3.7404	16.453
3.7377	16.478
3.7350	16.496
3.7323	16.491
3.7296	16.469
3.7269	16.440
3.7242	16.451
3.7216	16.459
3.7189	16.442
3.7162	16.416
3.7136	16.418
3.7109	16.433
3.7083	16.437
3.7056	16.423
3.7030	16.398
3.7003	16.405
3.6977	16.403
3.6950	16.376
3.6924	16.368
3.6898	16.373
3.6872	16.395
3.6845	16.384
3.6819	16.360
3.6793	16.362
3.6767	16.370
3.6741	16.362
3.6715	16.365
3.6689	16.351
3.6663	16.337
3.6637	16.339
3.6611	16.326
3.6585	16.324
3.6560	16.335
3.6534	16.330
3.6508	16.317
3.6482	16.288
3.6457	16.276
3.6431	16.283
3.6406	16.292
3.6380	16.306
3.6355	16.297
3.6329	16.280
3.6304	16.274
3.6278	16.267
3.6253	16.257
3.6227	16.245
3.6202	16.269
3.6177	16.277
3.6152	16.254
3.6127	16.245
3.6101	16.236
3.6076	16.223
3.6051	16.217
3.6026	16.212
3.6001	16.217
3.5976	16.201
3.5951	16.190
3.5926	16.202
3.5901	16.203
3.5876	16.181
3.5852	16.172
3.5827	16.175
3.5802	16.175
3.5777	16.167
3.5753	16.164
3.5728	16.169
3.5704	16.156
3.5679	16.137
3.5654	16.130
3.5630	16.132
3.5605	16.131
3.5581	16.126
3.5557	16.129
3.5532	16.136
3.5508	16.118
3.5484	16.093
3.5459	16.098
3.5435	16.111
3.5411	16.104
3.5387	16.080
3.5363	16.062
3.5338	16.056
3.5314	16.055
3.5290	16.068
3.5266	16.079
3.5242	16.087
3.5218	16.074
3.5195	16.064
3.5171	16.070
3.5147	16.077
3.5123	16.061
3.5099	16.062
3.5075	16.069
3.5052	16.067
3.5028	16.062
3.5004	16.051
3.4981	16.062
3.4957	16.051
3.4934	16.032
3.4910	16.022
3.4887	15.999
3.4863	15.991
3.4840	16.004
3.4816	16.020
3.4793	15.995
3.4770	15.972
3.4746	15.962
3.4723	15.961
3.4700	15.969
3.4677	15.956
3.4653	15.932
3.4630	15.919
3.4607	15.928
3.4584	15.919
3.4561	15.935
3.4538	15.958
3.4515	15.962
3.4492	15.948
3.4469	15.938
3.4446	15.927
3.4423	15.907
3.4400	15.904
3.4378	15.958
3.4355	15.964
3.4332	15.926
3.4309	15.918
3.4287	15.895
3.4264	15.896
3.4241	15.902
3.4219	15.902
3.4196	15.877
3.4174	15.873
3.4151	15.874
3.4129	15.841
3.4106	15.842
3.4084	15.847
3.4061	15.837
3.4039	15.819
3.4017	15.811
3.3994	15.818
3.3972	15.811
3.3950	15.813
3.3928	15.812
3.3906	15.782
3.3883	15.774
3.3861	15.764
3.3839	15.753
3.3817	15.755
3.3795	15.746
3.3773	15.751
3.3751	15.770
3.3729	15.754
3.3707	15.704
3.3685	15.681
3.3663	15.682
3.3641	15.676
3.3620	15.669
3.3598	15.659
3.3576	15.651
3.3554	15.631
3.3533	15.645
3.3511	15.642
3.3489	15.636
3.3468	15.629
3.3446	15.620
3.3425	15.637
3.3403	15.632
3.3382	15.589
3.3360	15.560
3.3339	15.559
3.3317	15.580
3.3296	15.579
3.3274	15.555
3.3253	15.534
3.3232	15.541
3.3210	15.539
3.3189	15.534
3.3168	15.530
3.3147	15.528
3.3126	15.509
3.3104	15.508
3.3083	15.517
3.3062	15.509
3.3041	15.503
3.3020	15.507
3.2999	15.491
3.2978	15.467
3.2957	15.480
3.2936	15.473
3.2915	15.461
3.2894	15.482
3.2874	15.468
3.2853	15.436
3.2832	15.434
3.2811	15.443
3.2790	15.456
3.2770	15.441
3.2749	15.411
3.2728	15.410
3.2708	15.398
3.2687	15.389
3.2666	15.394
3.2646	15.406
3.2625	15.390
3.2605	15.360
3.2584	15.351
3.2564	15.358
3.2543	15.349
3.2523	15.358
3.2503	15.370
3.2482	15.357
3.2462	15.320
3.2442	15.326
3.2421	15.314
3.2401	15.283
3.2381	15.282
3.2361	15.290
3.2340	15.290
3.2320	15.282
3.2300	15.271
3.2280	15.266
3.2260	15.256
3.2240	15.239
3.2220	15.240
3.2200	15.254
3.2180	15.247
3.2160	15.249
3.2140	15.235
3.2120	15.230
3.2100	15.231
3.2080	15.193
3.2060	15.193
3.2040	15.197
3.2021	15.184
3.2001	15.183
3.1981	15.155
3.1961	15.140
3.1942	15.151
3.1922	15.140
3.1902	15.138
3.1883	15.132
3.1863	15.145
3.1844	15.147
3.1824	15.146
3.1805	15.143
3.1785	15.116
3.1766	15.109
3.1746	15.097
3.1727	15.080
3.1707	15.091
3.1688	15.103
3.1669	15.089
3.1649	15.062
3.1630	15.050
3.1611	15.053
3.1591	15.058
3.1572	15.062
3.1553	15.034
3.1534	15.007
3.1515	15.008
3.1495	15.027
3.1476	15.028
3.1457	15.024
3.1438	15.022
3.1419	15.006
3.1400	14.979
3.1381	14.984
3.1362	14.989
3.1343	14.973
3.1324	14.957
3.1305	14.943
3.1286	14.938
3.1268	14.947
3.1249	14.968
3.1230	14.989
3.1211	14.965
3.1192	14.918
3.1174	14.914
3.1155	14.905
3.1136	14.894
3.1117	14.915
3.1099	14.913
3.1080	14.872
3.1061	14.872
3.1043	14.887
3.1024	14.888
3.1006	14.889
3.0987	14.909
3.0969	14.893
3.0950	14.835
3.0932	14.822
3.0913	14.844
3.0895	14.872
3.0876	14.869
3.0858	14.830
3.0840	14.811
3.0821	14.826
3.0803	14.830
3.0785	14.811
3.0766	14.792
3.0748	14.767
3.0730	14.766
3.0712	14.786
3.0694	14.775
3.0675	14.796
3.0657	14.796
3.0639	14.776
3.0621	14.761
3.0603	14.750
3.0585	14.755
3.0567	14.741
3.0549	14.721
3.0531	14.735
3.0513	14.746
3.0495	14.755
3.0477	14.730
3.0459	14.717
3.0441	14.723
3.0423	14.731
3.0406	14.715
3.0388	14.710
3.0370	14.708
3.0352	14.703
3.0334	14.715
3.0317	14.701
3.0299	14.665
3.0281	14.644
3.0264	14.624
3.0246	14.635
3.0228	14.640
3.0211	14.626
3.0193	14.636
3.0176	14.637
3.0158	14.612
3.0140	14.587
3.0123	14.621
3.0105	14.623
3.0088	14.579
3.0070	14.581
3.0053	14.586
3.0036	14.574
3.0018	14.538
3.0001	14.563
2.9984	14.583
2.9966	14.560
2.9949	14.544
2.9932	14.510
2.9914	14.522
2.9897	14.533
2.9880	14.487
2.9863	14.467
2.9845	14.473
2.9828	14.483
2.9811	14.491
2.9794	14.481
2.9777	14.477
2.9760	14.461
2.9743	14.448
2.9726	14.485
2.9709	14.515
2.9692	14.470
2.9675	14.428
2.9658	14.444
2.9641	14.475
2.9624	14.473
2.9607	14.442
2.9590	14.422
2.9573	14.404
2.9556	14.424
2.9539	14.438
2.9523	14.389
2.9506	14.374
2.9489	14.401
2.9472	14.393
2.9455	14.378
2.9439	14.374
2.9422	14.384
2.9405	14.400
2.9389	14.377
2.9372	14.342
2.9355	14.361
2.9339	14.372
2.9322	14.355
2.9306	14.341
2.9289	14.321
2.9272	14.299
2.9256	14.318
2.9239	14.341
2.9223	14.348
2.9207	14.343
2.9190	14.314
2.9174	14.305
2.9157	14.298
2.9141	14.288
2.9124	14.317
2.9108	14.286
2.9092	14.294
2.9075	14.309
2.9059	14.292
2.9043	14.270
2.9027	14.258
2.9010	14.253
2.8994	14.252
2.8978	14.242
2.8962	14.240
2.8946	14.230
2.8929	14.214
2.8913	14.202
2.8897	14.220
2.8881	14.232
2.8865	14.214
2.8849	14.247
2.8833	14.275
2.8817	14.223
2.8801	14.201
2.8785	14.212
2.8769	14.201
2.8753	14.188
2.8737	14.203
2.8721	14.179
2.8705	14.154
2.8689	14.175
2.8673	14.202
2.8658	14.196
2.8642	14.194
2.8626	14.199
2.8610	14.180
2.8594	14.134
2.8579	14.133
2.8563	14.150
2.8547	14.143
2.8531	14.163
2.8516	14.135
2.8500	14.088
2.8484	14.087
2.8469	14.130
2.8453	14.151
2.8437	14.130
2.8422	14.099
2.8406	14.076
2.8391	14.080
2.8375	14.058
2.8360	14.037
2.8344	14.056
2.8329	14.073
2.8313	14.081
2.8298	14.088
2.8282	14.096
2.8267	14.079
2.8252	14.082
2.8236	14.083
2.8221	14.045
2.8205	14.034
2.8190	14.030
2.8175	14.048
2.8159	14.052
2.8144	14.032
2.8129	14.054
2.8114	14.080
2.8098	14.078
2.8083	14.075
2.8068	14.081
2.8053	14.062
2.8038	14.034
2.8022	14.066
2.8007	14.095
2.7992	14.085
2.7977	14.060
2.7962	14.066
2.7947	14.085
2.7932	14.094
2.7917	14.109
2.7902	14.114
2.7887	14.084
2.7872	14.065
2.7857	14.079
2.7842	14.101
2.7827	14.078
2.7812	14.106
2.7797	14.132
2.7782	14.127
2.7767	14.138
2.7752	14.167
2.7738	14.163
2.7723	14.129
2.7708	14.094
2.7693	14.137
2.7678	14.179
2.7664	14.166
2.7649	14.183
2.7634	14.189
2.7619	14.197
2.7605	14.257
2.7590	14.245
2.7575	14.212
2.7561	14.185
2.7546	14.196
2.7531	14.247
2.7517	14.268
2.7502	14.272
2.7488	14.277
2.7473	14.273
2.7458	14.297
2.7444	14.336
2.7429	14.331
2.7415	14.270
2.7400	14.226
2.7386	14.260
2.7371	14.337
2.7357	14.329
2.7343	14.306
2.7328	14.363
2.7314	14.395
2.7299	14.374
2.7285	14.355
2.7271	14.391
2.7256	14.356
2.7242	14.288
2.7228	14.318
2.7213	14.296
2.7199	14.291
2.7185	14.340
2.7171	14.382
2.7156	14.411
2.7142	14.406
2.7128	14.380
2.7114	14.318
2.7100	14.304
2.7085	14.354
2.7071	14.408
2.7057	14.426
2.7043	14.406
2.7029	14.374
2.7015	14.347
2.7001	14.362
2.6987	14.365
2.6973	14.357
2.6959	14.335
2.6945	14.280
2.6931	14.264
2.6917	14.320
2.6903	14.342
2.6889	14.312
2.6875	14.317
2.6861	14.338
2.6847	14.320
2.6833	14.266
2.6819	14.274
2.6805	14.252
2.6791	14.177
2.6778	14.177
2.6764	14.199
2.6750	14.229
2.6736	14.256
2.6722	14.206
2.6709	14.114
2.6695	14.137
2.6681	14.181
2.6667	14.154
2.6654	14.144
2.6640	14.186
2.6626	14.231
2.6613	14.216
2.6599	14.227
2.6585	14.222
2.6572	14.219
2.6558	14.223
2.6545	14.191
2.6531	14.167
2.6517	14.195
2.6504	14.237
2.6490	14.214
2.6477	14.173
2.6463	14.150
2.6450	14.170
2.6436	14.178
2.6423	14.142
2.6409	14.148
2.6396	14.176
2.6382	14.199
2.6369	14.170
2.6356	14.130
2.6342	14.103
2.6329	14.110
2.6315	14.071
2.6302	14.010
2.6289	14.029
2.6275	14.040
2.6262	14.022
2.6249	14.081
2.6236	14.127
2.6222	14.089
2.6209	14.009
2.6196	13.988
2.6183	13.993
2.6169	13.979
2.6156	14.000
2.6143	14.008
2.6130	14.029
2.6117	14.035
2.6103	14.008
2.6090	13.974
2.6077	13.952
2.6064	13.929
2.6051	13.905
2.6038	13.939
2.6025	13.970
2.6012	13.963
2.5999	13.967
2.5986	13.971
2.5973	13.962
2.5960	13.870
2.5947	13.761
2.5934	13.815
2.5921	13.895
2.5908	13.931
2.5895	13.962
2.5882	13.917
2.5869	13.865
2.5856	13.862
2.5843	13.851
2.5830	13.861
2.5817	13.874
2.5805	13.859
2.5792	13.858
2.5779	13.865
2.5766	13.875
2.5753	13.855
2.5741	13.804
2.5728	13.786
2.5715	13.817
2.5702	13.821
2.5690	13.817
2.5677	13.829
2.5664	13.828
2.5651	13.793
2.5639	13.784
2.5626	13.749
2.5613	13.708
2.5601	13.751
2.5588	13.793
2.5575	13.781
2.5563	13.771
2.5550	13.764
2.5538	13.778
2.5525	13.771
2.5513	13.743
2.5500	13.751
2.5487	13.738
2.5475	13.735
2.5462	13.730
2.5450	13.719
2.5437	13.708
2.5425	13.695
2.5413	13.717
2.5400	13.718
2.5388	13.697
2.5375	13.669
2.5363	13.663
2.5350	13.670
2.5338	13.672
2.5326	13.653
2.5313	13.657
2.5301	13.662
2.5289	13.643
2.5276	13.639
2.5264	13.646
2.5252	13.618
2.5239	13.612
2.5227	13.618
2.5215	13.596
2.5202	13.581
2.5190	13.576
2.5178	13.558
2.5166	13.587
2.5154	13.586
2.5141	13.593
2.5129	13.585
2.5117	13.554
2.5105	13.556
2.5093	13.570
2.5081	13.553
2.5068	13.538
2.5056	13.522
2.5044	13.545
2.5032	13.535
2.5020	13.531
2.5008	13.537
2.4996	13.512
2.4984	13.501
2.4972	13.496
2.4960	13.497
2.4948	13.480
2.4936	13.467
2.4924	13.468
2.4912	13.461
2.4900	13.466
2.4888	13.437
2.4876	13.418
2.4864	13.424
2.4852	13.414
2.4840	13.427
2.4828	13.423
2.4816	13.393
2.4805	13.388
2.4793	13.374
2.4781	13.377
2.4769	13.372
2.4757	13.389
2.4745	13.391
2.4734	13.338
2.4722	13.324
2.4710	13.360
2.4698	13.376
2.4686	13.365
2.4675	13.353
2.4663	13.319
2.4651	13.312
2.4640	13.347
2.4628	13.361
2.4616	13.321
2.4604	13.281
2.4593	13.287
2.4581	13.300
2.4569	13.301
2.4558	13.294
2.4546	13.291
2.4535	13.277
2.4523	13.253
2.4511	13.261
2.4500	13.267
2.4488	13.219
2.4477	13.233
2.4465	13.242
2.4454	13.229
2.4442	13.201
2.4431	13.204
2.4419	13.217
2.4408	13.219
2.4396	13.217
2.4385	13.240
2.4373	13.201
2.4362	13.153
2.4350	13.147
2.4339	13.155
2.4327	13.146
2.4316	13.157
2.4305	13.145
2.4293	13.119
2.4282	13.129
2.4270	13.144
2.4259	13.143
2.4248	13.151
2.4236	13.129
2.4225	13.094
2.4214	13.078
2.4202	13.096
2.4191	13.112
2.4180	13.114
2.4169	13.095
2.4157	13.081
2.4146	13.074
2.4135	13.074
2.4124	13.067
2.4112	13.062
2.4101	13.045
2.4090	13.011
2.4079	12.987
2.4068	12.979
2.4056	13.021
2.4045	13.057
2.4034	13.047
2.4023	13.014
2.4012	13.000
2.4001	13.004
2.3990	13.009
2.3979	13.029
2.3967	13.009
2.3956	13.003
2.3945	13.001
2.3934	12.996
2.3923	12.965
2.3912	12.962
2.3901	12.972
2.3890	12.965
2.3879	12.939
2.3868	12.948
2.3857	12.929
2.3846	12.922
2.3835	12.951
2.3824	12.959
2.3813	12.910
2.3802	12.908
2.3791	12.913
2.3781	12.883
2.3770	12.882
2.3759	12.911
2.3748	12.895
2.3737	12.892
2.3726	12.885
2.3715	12.888
2.3704	12.915
2.3694	12.893
2.3683	12.879
2.3672	12.880
2.3661	12.855
2.3650	12.839
2.3640	12.851
2.3629	12.823
2.3618	12.820
2.3607	12.837
2.3597	12.823
2.3586	12.828
2.3575	12.845
2.3564	12.836
2.3554	12.831
2.3543	12.811
2.3532	12.780
2.3522	12.778
2.3511	12.785
2.3500	12.824
2.3490	12.818
2.3479	12.750
2.3468	12.744
2.3458	12.754
2.3447	12.770
2.3436	12.796
2.3426	12.748
2.3415	12.725
2.3405	12.757
2.3394	12.754
2.3384	12.713
2.3373	12.727
2.3363	12.724
2.3352	12.722
2.3342	12.753
2.3331	12.735
2.3321	12.700
2.3310	12.722
2.3300	12.728
2.3289	12.683
2.3279	12.654
2.3268	12.717
2.3258	12.722
2.3247	12.693
2.3237	12.671
2.3226	12.654
2.3216	12.702
2.3206	12.704
2.3195	12.651
2.3185	12.661
2.3175	12.683
2.3164	12.688
2.3154	12.664
2.3144	12.635
2.3133	12.642
2.3123	12.668
2.3113	12.643
2.3102	12.637
2.3092	12.632
2.3082	12.618
2.3071	12.630
2.3061	12.580
2.3051	12.585
2.3041	12.646
2.3030	12.610
2.3020	12.575
2.3010	12.569
2.3000	12.591
2.2990	12.632
2.2979	12.604
2.2969	12.575
2.2959	12.601
2.2949	12.621
2.2939	12.618
2.2929	12.576
2.2918	12.538
2.2908	12.519
2.2898	12.567
2.2888	12.578
2.2878	12.551
2.2868	12.536
2.2858	12.570
2.2848	12.555
2.2838	12.515
2.2828	12.492
2.2818	12.489
2.2808	12.465
2.2798	12.488
2.2787	12.505
2.2777	12.493
2.2767	12.486
2.2757	12.488
2.2747	12.500
2.2738	12.508
2.2728	12.514
2.2718	12.466
2.2708	12.438
2.2698	12.485
2.2688	12.502
2.2678	12.488
2.2668	12.463
2.2658	12.469
2.2648	12.515
2.2638	12.507
2.2628	12.460
2.2618	12.434
2.2609	12.424
2.2599	12.434
2.2589	12.428
2.2579	12.424
2.2569	12.430
2.2559	12.403
2.2550	12.411
2.2540	12.428
2.2530	12.405
2.2520	12.384
2.2510	12.363
2.2501	12.372
2.2491	12.398
2.2481	12.392
2.2471	12.365
2.2462	12.355
2.2452	12.390
2.2442	12.396
2.2433	12.357
2.2423	12.344
2.2413	12.362
2.2403	12.390
2.2394	12.349
2.2384	12.347
2.2374	12.358
2.2365	12.373
2.2355	12.345
2.2345	12.318
2.2336	12.350
2.2326	12.362
2.2317	12.324
2.2307	12.325
2.2297	12.323
2.2288	12.280
2.2278	12.285
2.2269	12.287
2.2259	12.266
2.2250	12.294
2.2240	12.295
2.2231	12.271
2.2221	12.232
2.2211	12.221
2.2202	12.238
2.2192	12.245
2.2183	12.263
2.2173	12.238
2.2164	12.244
2.2155	12.279
2.2145	12.250
2.2136	12.202
2.2126	12.197
2.2117	12.230
2.2107	12.232
2.2098	12.272
2.2088	12.302
2.2079	12.254
2.2070	12.235
2.2060	12.231
2.2051	12.233
2.2041	12.231
2.2032	12.226
2.2023	12.236
2.2013	12.225
2.2004	12.227
2.1995	12.235
2.1985	12.249
2.1976	12.206
2.1967	12.161
2.1957	12.160
2.1948	12.162
2.1939	12.179
2.1930	12.189
2.1920	12.210
2.1911	12.218
2.1902	12.180
2.1893	12.183
2.1883	12.225
2.1874	12.197
2.1865	12.178
2.1856	12.177
2.1846	12.154
2.1837	12.134
2.1828	12.140
2.1819	12.145
2.1810	12.194
2.1800	12.223
2.1791	12.186
2.1782	12.163
2.1773	12.124
2.1764	12.145
2.1755	12.176
2.1746	12.158
2.1736	12.141
2.1727	12.122
2.1718	12.096
2.1709	12.067
2.1700	12.076
2.1691	12.117
2.1682	12.111
2.1673	12.100
2.1664	12.103
2.1655	12.115
2.1646	12.112
2.1637	12.115
2.1628	12.105
2.1619	12.070
2.1610	12.033
2.1601	12.080
2.1592	12.058
2.1583	12.072
2.1574	12.082
2.1565	12.084
2.1556	12.071
2.1547	12.051
2.1538	12.043
2.1529	12.034
2.1520	12.019
2.1511	12.032
2.1502	12.073
2.1493	12.077
2.1484	12.030
2.1475	12.031
2.1466	12.027
2.1458	11.995
2.1449	11.974
2.1440	12.004
2.1431	12.035
2.1422	12.029
2.1413	12.031
2.1404	12.030
2.1396	11.969
2.1387	11.991
2.1378	11.992
2.1369	11.962
2.1360	12.018
2.1352	12.011
2.1343	11.968
2.1334	11.972
2.1325	11.960
2.1316	11.954
2.1308	11.985
2.1299	12.003
2.1290	12.000
2.1281	11.970
2.1273	11.955
2.1264	11.976
2.1255	12.015
2.1247	12.001
2.1238	11.908
2.1229	11.874
2.1220	11.913
2.1212	11.926
2.1203	11.970
2.1194	12.008
2.1186	11.968
2.1177	11.952
2.1168	11.944
2.1160	11.880
2.1151	11.866
2.1143	11.927
2.1134	11.893
2.1125	11.877
2.1117	11.967
2.1108	11.957
2.1100	11.928
2.1091	11.924
2.1082	11.883
2.1074	11.897
2.1065	11.920
2.1057	11.972
2.1048	11.973
2.1040	11.923
2.1031	11.900
2.1023	11.882
2.1014	11.897
2.1005	11.862
2.0997	11.833
2.0988	11.885
2.0980	11.886
2.0971	11.856
2.0963	11.861
2.0955	11.857
2.0946	11.857
2.0938	11.887
2.0929	11.901
2.0921	11.842
2.0912	11.853
2.0904	11.910
2.0895	11.918
2.0887	11.885
2.0879	11.816
2.0870	11.836
2.0862	11.849
2.0853	11.813
2.0845	11.819
2.0837	11.797
2.0828	11.836
2.0820	11.872
2.0812	11.835
2.0803	11.795
2.0795	11.788

