Name: 60051.19
Type: Soil
Class: Lunar
Subclass: Highlands
Particle Size: Fine
Sample No.: 60051.19
Owner: JHU
Wavelength range: IR
Origin: Apollo 16 landing site via the NASA Lunar Sample Repository at Johnson 
Space Center, Houston, TX.
Description:  This sample is one of a suite of relatively more aluminous and 
lower iron and titanium soils at the Apollo 16 site, and has the second oldest 
exposure age of the four soils of that suite (Is/FeO=57).



Measurement:  Directional (10 degree) hemispherical reflectance
First Column:  X
Second Column:  Y
X Units:  Wavelength (micrometers)
Y Units:  Reflectance (percent)
First X Value:  14.011
Last X Value:  2.079
Number of X Values:  2124
Additional information:  None

14.011	0.78290
13.973	0.87220
13.936	0.78055
13.899	0.81325
13.861	0.84570
13.824	0.90515
13.788	0.84260
13.751	0.92080
13.715	0.88545
13.679	0.82080
13.643	0.85580
13.607	0.90250
13.571	0.90580
13.536	0.93820
13.500	0.92730
13.465	0.99060
13.430	1.0644
13.396	1.1046
13.361	1.1062
13.327	1.0774
13.293	1.0524
13.259	1.0841
13.225	1.0982
13.191	1.0738
13.158	1.0766
13.124	1.0905
13.091	1.1097
13.058	1.1445
13.026	1.1571
12.993	1.1670
12.960	1.2181
12.928	1.2503
12.896	1.2490
12.864	1.2462
12.832	1.2392
12.800	1.3557
12.769	1.5114
12.737	1.6271
12.706	1.7024
12.675	1.7854
12.644	1.8666
12.614	1.9536
12.583	2.0121
12.552	2.0869
12.522	2.1788
12.492	2.2559
12.462	2.3009
12.432	2.3709
12.402	2.4392
12.373	2.4890
12.343	2.5448
12.314	2.6106
12.285	2.6174
12.256	2.6104
12.227	2.6282
12.198	2.6268
12.169	2.5974
12.141	2.5833
12.113	2.5796
12.084	2.5685
12.056	2.5339
12.028	2.5496
12.000	2.5479
11.973	2.5188
11.945	2.4910
11.918	2.4736
11.890	2.4495
11.863	2.4352
11.836	2.4202
11.809	2.4124
11.782	2.4143
11.755	2.4219
11.729	2.3928
11.702	2.3738
11.676	2.3826
11.650	2.4006
11.624	2.4070
11.598	2.4103
11.572	2.3878
11.546	2.3884
11.520	2.3749
11.495	2.3620
11.469	2.3717
11.444	2.3921
11.419	2.3991
11.394	2.3641
11.369	2.3199
11.344	2.2980
11.319	2.3034
11.294	2.2850
11.270	2.2753
11.245	2.3009
11.221	2.3329
11.197	2.3275
11.173	2.3056
11.149	2.3076
11.125	2.3171
11.101	2.3080
11.077	2.3203
11.054	2.3565
11.030	2.3518
11.007	2.3426
10.983	2.3516
10.960	2.3583
10.937	2.3493
10.914	2.3605
10.891	2.3835
10.868	2.4169
10.846	2.4416
10.823	2.4583
10.800	2.4504
10.778	2.4444
10.755	2.4288
10.733	2.4117
10.711	2.4093
10.689	2.4110
10.667	2.3927
10.645	2.3851
10.623	2.3489
10.602	2.3263
10.580	2.3061
10.558	2.2866
10.537	2.2771
10.516	2.2743
10.494	2.2329
10.473	2.1776
10.452	2.1557
10.431	2.1404
10.410	2.0738
10.389	2.0125
10.368	1.9492
10.348	1.9292
10.327	1.9139
10.306	1.8714
10.286	1.8253
10.266	1.7851
10.245	1.7360
10.225	1.6897
10.205	1.6624
10.185	1.6816
10.165	1.6641
10.145	1.6466
10.125	1.6581
10.106	1.6356
10.086	1.5813
10.066	1.5391
10.047	1.5312
10.027	1.5543
10.008	1.5390
9.9887	1.5044
9.9695	1.4927
9.9504	1.4853
9.9313	1.4736
9.9123	1.4649
9.8934	1.4640
9.8746	1.4605
9.8558	1.4815
9.8371	1.4895
9.8185	1.4803
9.7999	1.4955
9.7814	1.4876
9.7630	1.4868
9.7447	1.5192
9.7264	1.5073
9.7082	1.4766
9.6900	1.4602
9.6719	1.4538
9.6539	1.4200
9.6360	1.4093
9.6181	1.4183
9.6003	1.3865
9.5825	1.3644
9.5649	1.3370
9.5472	1.2889
9.5297	1.2683
9.5122	1.2602
9.4948	1.2364
9.4774	1.2113
9.4601	1.1909
9.4429	1.1607
9.4257	1.1330
9.4086	1.1390
9.3916	1.1176
9.3746	1.0828
9.3577	1.0903
9.3408	1.1088
9.3240	1.1139
9.3073	1.1090
9.2906	1.0865
9.2740	1.0920
9.2574	1.1040
9.2409	1.0810
9.2245	1.0915
9.2081	1.1310
9.1918	1.1334
9.1755	1.1459
9.1593	1.1822
9.1431	1.2059
9.1270	1.2035
9.1110	1.2061
9.0950	1.1904
9.0791	1.2075
9.0632	1.2513
9.0474	1.2501
9.0316	1.2388
9.0159	1.2293
9.0003	1.2225
8.9847	1.2161
8.9691	1.2071
8.9536	1.2066
8.9382	1.1746
8.9228	1.1973
8.9075	1.2144
8.8922	1.2091
8.8770	1.2042
8.8618	1.1843
8.8467	1.1483
8.8316	1.1617
8.8166	1.1961
8.8016	1.1942
8.7867	1.1851
8.7718	1.2111
8.7570	1.2241
8.7422	1.2535
8.7275	1.2870
8.7129	1.2765
8.6982	1.2551
8.6837	1.2315
8.6692	1.2058
8.6547	1.2065
8.6403	1.2304
8.6259	1.2314
8.6116	1.2066
8.5973	1.1914
8.5830	1.1514
8.5688	1.1578
8.5547	1.1463
8.5406	1.1059
8.5266	1.0872
8.5126	1.0358
8.4986	1.0125
8.4847	1.0029
8.4708	0.96320
8.4570	0.92240
8.4432	0.88455
8.4295	0.83370
8.4158	0.76985
8.4022	0.73710
8.3886	0.71820
8.3750	0.68815
8.3615	0.65620
8.3481	0.62770
8.3347	0.59530
8.3213	0.56430
8.3079	0.50940
8.2946	0.50550
8.2814	0.50610
8.2682	0.44495
8.2550	0.41595
8.2419	0.41960
8.2288	0.41750
8.2158	0.43770
8.2028	0.44060
8.1898	0.42465
8.1769	0.40450
8.1640	0.41945
8.1512	0.44175
8.1384	0.45760
8.1256	0.47415
8.1129	0.49430
8.1002	0.52745
8.0876	0.55230
8.0750	0.58530
8.0624	0.62680
8.0499	0.64510
8.0374	0.66815
8.0250	0.72700
8.0126	0.78610
8.0002	0.82695
7.9879	0.87785
7.9756	0.93335
7.9634	0.98985
7.9512	1.0340
7.9390	1.0863
7.9268	1.1453
7.9147	1.2170
7.9027	1.2903
7.8906	1.3657
7.8786	1.4487
7.8667	1.5182
7.8548	1.5791
7.8429	1.6609
7.8310	1.7268
7.8192	1.7969
7.8075	1.8837
7.7957	1.9799
7.7840	2.0697
7.7723	2.1592
7.7607	2.2415
7.7491	2.3102
7.7375	2.3918
7.7260	2.4864
7.7145	2.5842
7.7031	2.6819
7.6916	2.7885
7.6802	2.8830
7.6689	2.9766
7.6575	3.0645
7.6462	3.1329
7.6350	3.2234
7.6238	3.3161
7.6126	3.4106
7.6014	3.5027
7.5903	3.6022
7.5792	3.6698
7.5681	3.7441
7.5571	3.8593
7.5461	3.9451
7.5351	4.0210
7.5242	4.1141
7.5133	4.2047
7.5024	4.2984
7.4916	4.4016
7.4807	4.5066
7.4700	4.5969
7.4592	4.6901
7.4485	4.7875
7.4378	4.8767
7.4272	4.9629
7.4165	5.0670
7.4059	5.1533
7.3954	5.2221
7.3848	5.3118
7.3743	5.4156
7.3639	5.5093
7.3534	5.5836
7.3430	5.6734
7.3326	5.7810
7.3223	5.8674
7.3119	5.9520
7.3016	6.0216
7.2914	6.1066
7.2811	6.1939
7.2709	6.2722
7.2607	6.3309
7.2506	6.4178
7.2404	6.5082
7.2303	6.5794
7.2203	6.6619
7.2102	6.7513
7.2002	6.8414
7.1902	6.9172
7.1803	6.9968
7.1703	7.0768
7.1604	7.1556
7.1506	7.2431
7.1407	7.2937
7.1309	7.3442
7.1211	7.4152
7.1113	7.4795
7.1016	7.5410
7.0919	7.6002
7.0822	7.6741
7.0725	7.7373
7.0629	7.7871
7.0533	7.8839
7.0437	7.9896
7.0341	8.0246
7.0246	8.0583
7.0151	8.1012
7.0056	8.1647
6.9962	8.2573
6.9867	8.3161
6.9773	8.3689
6.9679	8.4442
6.9586	8.5004
6.9493	8.5292
6.9400	8.5906
6.9307	8.6218
6.9214	8.6432
6.9122	8.6819
6.9030	8.7316
6.8938	8.7866
6.8847	8.8225
6.8755	8.8659
6.8664	8.9354
6.8573	8.9396
6.8483	8.9304
6.8393	8.9513
6.8302	8.9957
6.8213	9.0420
6.8123	9.0990
6.8034	9.1596
6.7944	9.2173
6.7855	9.2738
6.7767	9.3256
6.7678	9.3573
6.7590	9.3881
6.7502	9.4361
6.7414	9.4707
6.7327	9.4891
6.7239	9.5378
6.7152	9.5949
6.7065	9.6096
6.6979	9.6097
6.6892	9.6298
6.6806	9.6692
6.6720	9.6787
6.6634	9.6880
6.6549	9.7312
6.6464	9.7829
6.6378	9.8188
6.6294	9.8193
6.6209	9.8326
6.6124	9.8495
6.6040	9.8875
6.5956	9.9525
6.5872	9.9880
6.5789	10.021
6.5705	10.077
6.5622	10.099
6.5539	10.132
6.5456	10.141
6.5374	10.165
6.5292	10.227
6.5209	10.277
6.5128	10.283
6.5046	10.328
6.4964	10.412
6.4883	10.447
6.4802	10.427
6.4721	10.431
6.4640	10.473
6.4560	10.519
6.4480	10.560
6.4399	10.594
6.4320	10.629
6.4240	10.676
6.4160	10.748
6.4081	10.744
6.4002	10.682
6.3923	10.644
6.3844	10.641
6.3766	10.668
6.3687	10.655
6.3609	10.615
6.3531	10.635
6.3454	10.675
6.3376	10.670
6.3299	10.661
6.3221	10.635
6.3144	10.639
6.3068	10.664
6.2991	10.688
6.2914	10.719
6.2838	10.728
6.2762	10.739
6.2686	10.769
6.2611	10.788
6.2535	10.801
6.2460	10.799
6.2385	10.812
6.2310	10.862
6.2235	10.879
6.2160	10.880
6.2086	10.901
6.2011	10.925
6.1937	10.947
6.1863	10.997
6.1790	11.005
6.1716	11.003
6.1643	11.021
6.1570	11.054
6.1496	11.072
6.1424	11.098
6.1351	11.115
6.1278	11.144
6.1206	11.228
6.1134	11.288
6.1062	11.275
6.0990	11.277
6.0918	11.296
6.0847	11.319
6.0776	11.355
6.0704	11.395
6.0633	11.395
6.0563	11.452
6.0492	11.530
6.0421	11.490
6.0351	11.483
6.0281	11.511
6.0211	11.569
6.0141	11.638
6.0071	11.686
6.0002	11.756
5.9932	11.856
5.9863	11.958
5.9794	12.029
5.9725	12.130
5.9657	12.217
5.9588	12.281
5.9520	12.396
5.9451	12.534
5.9383	12.697
5.9315	12.772
5.9247	12.810
5.9180	12.890
5.9112	12.981
5.9045	13.102
5.8978	13.269
5.8911	13.372
5.8844	13.490
5.8777	13.583
5.8711	13.625
5.8644	13.733
5.8578	13.824
5.8512	13.902
5.8446	13.993
5.8380	14.113
5.8314	14.254
5.8249	14.413
5.8184	14.495
5.8118	14.534
5.8053	14.620
5.7988	14.723
5.7923	14.830
5.7859	14.933
5.7794	15.022
5.7730	15.148
5.7666	15.264
5.7602	15.295
5.7538	15.351
5.7474	15.432
5.7410	15.484
5.7347	15.550
5.7283	15.615
5.7220	15.671
5.7157	15.748
5.7094	15.817
5.7031	15.839
5.6969	15.859
5.6906	15.908
5.6844	15.963
5.6782	16.003
5.6719	16.022
5.6657	16.041
5.6596	16.119
5.6534	16.182
5.6472	16.252
5.6411	16.348
5.6349	16.368
5.6288	16.375
5.6227	16.435
5.6166	16.515
5.6106	16.571
5.6045	16.608
5.5984	16.665
5.5924	16.699
5.5864	16.752
5.5804	16.828
5.5744	16.856
5.5684	16.834
5.5624	16.839
5.5564	16.882
5.5505	16.904
5.5445	16.883
5.5386	16.880
5.5327	16.873
5.5268	16.873
5.5209	16.869
5.5151	16.862
5.5092	16.834
5.5033	16.816
5.4975	16.803
5.4917	16.803
5.4859	16.828
5.4801	16.848
5.4743	16.830
5.4685	16.832
5.4628	16.843
5.4570	16.847
5.4513	16.868
5.4455	16.902
5.4398	16.941
5.4341	16.977
5.4284	17.036
5.4228	17.130
5.4171	17.160
5.4114	17.189
5.4058	17.270
5.4002	17.348
5.3945	17.414
5.3889	17.488
5.3833	17.572
5.3778	17.659
5.3722	17.741
5.3666	17.818
5.3611	17.899
5.3555	17.974
5.3500	18.056
5.3445	18.107
5.3390	18.168
5.3335	18.211
5.3280	18.241
5.3225	18.292
5.3171	18.351
5.3116	18.413
5.3062	18.484
5.3008	18.550
5.2954	18.611
5.2900	18.683
5.2846	18.760
5.2792	18.838
5.2738	18.916
5.2684	18.979
5.2631	19.056
5.2578	19.144
5.2524	19.220
5.2471	19.298
5.2418	19.366
5.2365	19.427
5.2312	19.499
5.2260	19.572
5.2207	19.645
5.2154	19.728
5.2102	19.792
5.2050	19.870
5.1998	19.942
5.1945	20.002
5.1893	20.094
5.1842	20.178
5.1790	20.239
5.1738	20.318
5.1686	20.397
5.1635	20.487
5.1584	20.573
5.1532	20.673
5.1481	20.786
5.1430	20.870
5.1379	20.962
5.1328	21.069
5.1277	21.149
5.1227	21.245
5.1176	21.342
5.1126	21.422
5.1075	21.501
5.1025	21.581
5.0975	21.669
5.0925	21.767
5.0875	21.842
5.0825	21.906
5.0775	21.965
5.0726	22.034
5.0676	22.106
5.0627	22.188
5.0577	22.264
5.0528	22.364
5.0479	22.469
5.0430	22.548
5.0380	22.611
5.0332	22.692
5.0283	22.789
5.0234	22.870
5.0185	22.958
5.0137	23.066
5.0088	23.155
5.0040	23.244
4.9992	23.347
4.9944	23.430
4.9896	23.514
4.9848	23.605
4.9800	23.679
4.9752	23.769
4.9704	23.850
4.9657	23.926
4.9609	24.021
4.9562	24.111
4.9514	24.193
4.9467	24.271
4.9420	24.346
4.9373	24.440
4.9326	24.516
4.9279	24.595
4.9232	24.698
4.9186	24.775
4.9139	24.842
4.9092	24.937
4.9046	25.033
4.9000	25.110
4.8953	25.186
4.8907	25.262
4.8861	25.341
4.8815	25.418
4.8769	25.496
4.8723	25.580
4.8678	25.657
4.8632	25.743
4.8586	25.818
4.8541	25.905
4.8495	25.991
4.8450	26.073
4.8405	26.147
4.8360	26.202
4.8315	26.257
4.8270	26.336
4.8225	26.434
4.8180	26.496
4.8135	26.549
4.8090	26.627
4.8046	26.703
4.8001	26.752
4.7957	26.809
4.7913	26.866
4.7868	26.906
4.7824	26.969
4.7780	27.038
4.7736	27.107
4.7692	27.157
4.7648	27.213
4.7605	27.277
4.7561	27.328
4.7517	27.398
4.7474	27.462
4.7431	27.514
4.7387	27.588
4.7344	27.667
4.7301	27.756
4.7258	27.828
4.7215	27.897
4.7172	27.962
4.7129	28.037
4.7086	28.123
4.7043	28.194
4.7000	28.246
4.6958	28.315
4.6915	28.417
4.6873	28.481
4.6831	28.520
4.6788	28.597
4.6746	28.666
4.6704	28.717
4.6662	28.764
4.6620	28.822
4.6578	28.881
4.6536	28.942
4.6495	29.036
4.6453	29.127
4.6411	29.191
4.6370	29.276
4.6328	29.375
4.6287	29.459
4.6246	29.536
4.6205	29.641
4.6163	29.749
4.6122	29.843
4.6081	29.916
4.6040	30.005
4.6000	30.099
4.5959	30.181
4.5918	30.258
4.5877	30.322
4.5837	30.410
4.5796	30.500
4.5756	30.553
4.5716	30.608
4.5675	30.688
4.5635	30.750
4.5595	30.796
4.5555	30.860
4.5515	30.928
4.5475	30.983
4.5435	31.030
4.5395	31.088
4.5356	31.147
4.5316	31.208
4.5276	31.252
4.5237	31.294
4.5197	31.345
4.5158	31.384
4.5119	31.423
4.5080	31.473
4.5040	31.527
4.5001	31.556
4.4962	31.566
4.4923	31.588
4.4884	31.626
4.4846	31.676
4.4807	31.712
4.4768	31.727
4.4730	31.762
4.4691	31.775
4.4652	31.777
4.4614	31.803
4.4576	31.822
4.4537	31.832
4.4499	31.865
4.4461	31.881
4.4423	31.875
4.4385	31.876
4.4347	31.894
4.4309	31.912
4.4271	31.913
4.4233	31.929
4.4196	31.945
4.4158	31.937
4.4120	31.942
4.4083	31.963
4.4045	31.977
4.4008	31.999
4.3971	32.019
4.3934	32.032
4.3896	32.065
4.3859	32.117
4.3822	32.136
4.3785	32.164
4.3748	32.187
4.3711	32.204
4.3674	32.236
4.3638	32.283
4.3601	32.329
4.3564	32.357
4.3528	32.378
4.3491	32.411
4.3455	32.457
4.3418	32.483
4.3382	32.514
4.3346	32.561
4.3310	32.602
4.3273	32.631
4.3237	32.661
4.3201	32.697
4.3165	32.747
4.3129	32.799
4.3094	32.847
4.3058	32.893
4.3022	32.945
4.2986	32.998
4.2951	33.058
4.2915	33.114
4.2880	33.147
4.2844	33.186
4.2809	33.237
4.2774	33.273
4.2738	33.306
4.2703	33.339
4.2668	33.351
4.2633	33.343
4.2598	33.360
4.2563	33.388
4.2528	33.412
4.2493	33.448
4.2458	33.510
4.2424	33.552
4.2389	33.591
4.2354	33.625
4.2320	33.635
4.2285	33.633
4.2251	33.629
4.2216	33.630
4.2182	33.602
4.2148	33.582
4.2113	33.589
4.2079	33.580
4.2045	33.580
4.2011	33.580
4.1977	33.583
4.1943	33.596
4.1909	33.606
4.1875	33.609
4.1841	33.612
4.1808	33.613
4.1774	33.609
4.1740	33.629
4.1707	33.642
4.1673	33.652
4.1640	33.648
4.1606	33.648
4.1573	33.665
4.1540	33.665
4.1506	33.669
4.1473	33.680
4.1440	33.685
4.1407	33.688
4.1374	33.690
4.1341	33.682
4.1308	33.662
4.1275	33.664
4.1242	33.695
4.1209	33.697
4.1177	33.693
4.1144	33.708
4.1111	33.696
4.1079	33.688
4.1046	33.695
4.1014	33.707
4.0981	33.709
4.0949	33.722
4.0917	33.732
4.0884	33.739
4.0852	33.727
4.0820	33.734
4.0788	33.738
4.0756	33.731
4.0724	33.746
4.0692	33.747
4.0660	33.740
4.0628	33.745
4.0596	33.740
4.0565	33.741
4.0533	33.743
4.0501	33.753
4.0470	33.758
4.0438	33.756
4.0406	33.761
4.0375	33.768
4.0344	33.757
4.0312	33.755
4.0281	33.760
4.0250	33.760
4.0218	33.769
4.0187	33.773
4.0156	33.754
4.0125	33.757
4.0094	33.773
4.0063	33.764
4.0032	33.764
4.0001	33.785
3.9970	33.795
3.9940	33.788
3.9909	33.788
3.9878	33.804
3.9847	33.794
3.9817	33.785
3.9786	33.775
3.9756	33.777
3.9725	33.789
3.9695	33.791
3.9665	33.794
3.9634	33.791
3.9604	33.775
3.9574	33.767
3.9544	33.789
3.9513	33.804
3.9483	33.792
3.9453	33.784
3.9423	33.777
3.9393	33.771
3.9363	33.777
3.9333	33.771
3.9304	33.753
3.9274	33.757
3.9244	33.754
3.9214	33.738
3.9185	33.743
3.9155	33.750
3.9126	33.750
3.9096	33.732
3.9067	33.707
3.9037	33.700
3.9008	33.711
3.8979	33.710
3.8949	33.708
3.8920	33.713
3.8891	33.707
3.8862	33.702
3.8833	33.702
3.8804	33.714
3.8775	33.719
3.8746	33.714
3.8717	33.681
3.8688	33.668
3.8659	33.661
3.8630	33.664
3.8601	33.670
3.8573	33.659
3.8544	33.644
3.8515	33.637
3.8487	33.628
3.8458	33.629
3.8430	33.620
3.8401	33.628
3.8373	33.644
3.8344	33.626
3.8316	33.602
3.8288	33.603
3.8259	33.604
3.8231	33.585
3.8203	33.576
3.8175	33.565
3.8147	33.587
3.8119	33.585
3.8091	33.555
3.8063	33.548
3.8035	33.553
3.8007	33.524
3.7979	33.492
3.7951	33.495
3.7924	33.509
3.7896	33.531
3.7868	33.492
3.7841	33.472
3.7813	33.458
3.7785	33.443
3.7758	33.443
3.7730	33.432
3.7703	33.429
3.7676	33.436
3.7648	33.426
3.7621	33.410
3.7594	33.400
3.7566	33.391
3.7539	33.356
3.7512	33.336
3.7485	33.347
3.7458	33.331
3.7431	33.301
3.7404	33.292
3.7377	33.294
3.7350	33.292
3.7323	33.306
3.7296	33.285
3.7269	33.245
3.7242	33.251
3.7216	33.263
3.7189	33.248
3.7162	33.222
3.7136	33.209
3.7109	33.186
3.7083	33.172
3.7056	33.168
3.7030	33.161
3.7003	33.155
3.6977	33.128
3.6950	33.100
3.6924	33.079
3.6898	33.085
3.6872	33.099
3.6845	33.084
3.6819	33.068
3.6793	33.042
3.6767	33.032
3.6741	33.041
3.6715	33.040
3.6689	32.999
3.6663	32.973
3.6637	32.978
3.6611	32.976
3.6585	32.968
3.6560	32.962
3.6534	32.946
3.6508	32.920
3.6482	32.911
3.6457	32.905
3.6431	32.883
3.6406	32.887
3.6380	32.902
3.6355	32.890
3.6329	32.878
3.6304	32.865
3.6278	32.853
3.6253	32.828
3.6227	32.796
3.6202	32.804
3.6177	32.812
3.6152	32.803
3.6127	32.787
3.6101	32.759
3.6076	32.743
3.6051	32.740
3.6026	32.718
3.6001	32.703
3.5976	32.681
3.5951	32.669
3.5926	32.666
3.5901	32.668
3.5876	32.673
3.5852	32.653
3.5827	32.637
3.5802	32.609
3.5777	32.583
3.5753	32.588
3.5728	32.583
3.5704	32.562
3.5679	32.560
3.5654	32.531
3.5630	32.513
3.5605	32.502
3.5581	32.494
3.5557	32.485
3.5532	32.466
3.5508	32.432
3.5484	32.410
3.5459	32.392
3.5435	32.380
3.5411	32.359
3.5387	32.337
3.5363	32.295
3.5338	32.283
3.5314	32.275
3.5290	32.243
3.5266	32.217
3.5242	32.176
3.5218	32.118
3.5195	32.034
3.5171	31.958
3.5147	31.886
3.5123	31.761
3.5099	31.592
3.5075	31.439
3.5052	31.328
3.5028	31.211
3.5004	31.131
3.4981	31.144
3.4957	31.209
3.4934	31.280
3.4910	31.353
3.4887	31.372
3.4863	31.403
3.4840	31.448
3.4816	31.453
3.4793	31.449
3.4770	31.451
3.4746	31.441
3.4723	31.426
3.4700	31.448
3.4677	31.463
3.4653	31.442
3.4630	31.431
3.4607	31.405
3.4584	31.381
3.4561	31.346
3.4538	31.296
3.4515	31.267
3.4492	31.235
3.4469	31.157
3.4446	31.077
3.4423	30.997
3.4400	30.923
3.4378	30.891
3.4355	30.783
3.4332	30.651
3.4309	30.545
3.4287	30.411
3.4264	30.251
3.4241	30.067
3.4219	29.923
3.4196	29.811
3.4174	29.746
3.4151	29.719
3.4129	29.755
3.4106	29.855
3.4084	29.980
3.4061	30.074
3.4039	30.202
3.4017	30.347
3.3994	30.464
3.3972	30.548
3.3950	30.665
3.3928	30.747
3.3906	30.762
3.3883	30.758
3.3861	30.729
3.3839	30.656
3.3817	30.552
3.3795	30.451
3.3773	30.398
3.3751	30.371
3.3729	30.393
3.3707	30.431
3.3685	30.503
3.3663	30.634
3.3641	30.801
3.3620	30.926
3.3598	31.011
3.3576	31.082
3.3554	31.120
3.3533	31.151
3.3511	31.178
3.3489	31.198
3.3468	31.216
3.3446	31.240
3.3425	31.254
3.3403	31.239
3.3382	31.214
3.3360	31.213
3.3339	31.206
3.3317	31.191
3.3296	31.210
3.3274	31.205
3.3253	31.174
3.3232	31.183
3.3210	31.178
3.3189	31.180
3.3168	31.189
3.3147	31.180
3.3126	31.140
3.3104	31.100
3.3083	31.099
3.3062	31.110
3.3041	31.121
3.3020	31.112
3.2999	31.073
3.2978	31.052
3.2957	31.062
3.2936	31.043
3.2915	31.005
3.2894	31.002
3.2874	31.005
3.2853	30.973
3.2832	30.953
3.2811	30.958
3.2790	30.958
3.2770	30.957
3.2749	30.931
3.2728	30.903
3.2708	30.854
3.2687	30.837
3.2666	30.830
3.2646	30.816
3.2625	30.835
3.2605	30.804
3.2584	30.746
3.2564	30.758
3.2543	30.776
3.2523	30.770
3.2503	30.742
3.2482	30.718
3.2462	30.695
3.2442	30.697
3.2421	30.693
3.2401	30.674
3.2381	30.658
3.2361	30.666
3.2340	30.649
3.2320	30.593
3.2300	30.611
3.2280	30.596
3.2260	30.553
3.2240	30.532
3.2220	30.509
3.2200	30.489
3.2180	30.477
3.2160	30.472
3.2140	30.479
3.2120	30.469
3.2100	30.438
3.2080	30.400
3.2060	30.367
3.2040	30.367
3.2021	30.378
3.2001	30.333
3.1981	30.324
3.1961	30.321
3.1942	30.284
3.1922	30.259
3.1902	30.264
3.1883	30.255
3.1863	30.251
3.1844	30.242
3.1824	30.222
3.1805	30.203
3.1785	30.170
3.1766	30.152
3.1746	30.138
3.1727	30.096
3.1707	30.098
3.1688	30.098
3.1669	30.077
3.1649	30.062
3.1630	30.039
3.1611	30.026
3.1591	30.008
3.1572	30.007
3.1553	29.974
3.1534	29.935
3.1515	29.948
3.1495	29.958
3.1476	29.918
3.1457	29.929
3.1438	29.951
3.1419	29.915
3.1400	29.874
3.1381	29.854
3.1362	29.848
3.1343	29.838
3.1324	29.805
3.1305	29.785
3.1286	29.787
3.1268	29.791
3.1249	29.783
3.1230	29.764
3.1211	29.722
3.1192	29.706
3.1174	29.734
3.1155	29.710
3.1136	29.672
3.1117	29.691
3.1099	29.703
3.1080	29.653
3.1061	29.618
3.1043	29.621
3.1024	29.626
3.1006	29.617
3.0987	29.602
3.0969	29.570
3.0950	29.564
3.0932	29.544
3.0913	29.516
3.0895	29.501
3.0876	29.521
3.0858	29.526
3.0840	29.479
3.0821	29.433
3.0803	29.447
3.0785	29.455
3.0766	29.439
3.0748	29.404
3.0730	29.419
3.0712	29.424
3.0694	29.394
3.0675	29.398
3.0657	29.400
3.0639	29.396
3.0621	29.370
3.0603	29.330
3.0585	29.293
3.0567	29.281
3.0549	29.299
3.0531	29.312
3.0513	29.310
3.0495	29.316
3.0477	29.275
3.0459	29.217
3.0441	29.223
3.0423	29.257
3.0406	29.262
3.0388	29.232
3.0370	29.230
3.0352	29.243
3.0334	29.210
3.0317	29.149
3.0299	29.117
3.0281	29.103
3.0264	29.103
3.0246	29.138
3.0228	29.114
3.0211	29.073
3.0193	29.081
3.0176	29.063
3.0158	29.043
3.0140	29.009
3.0123	29.020
3.0105	29.034
3.0088	29.002
3.0070	28.984
3.0053	28.995
3.0036	28.977
3.0018	28.932
3.0001	28.952
2.9984	28.935
2.9966	28.866
2.9949	28.856
2.9932	28.867
2.9914	28.847
2.9897	28.844
2.9880	28.824
2.9863	28.819
2.9845	28.811
2.9828	28.809
2.9811	28.833
2.9794	28.824
2.9777	28.780
2.9760	28.761
2.9743	28.749
2.9726	28.786
2.9709	28.789
2.9692	28.757
2.9675	28.731
2.9658	28.736
2.9641	28.727
2.9624	28.731
2.9607	28.708
2.9590	28.701
2.9573	28.697
2.9556	28.700
2.9539	28.709
2.9523	28.685
2.9506	28.633
2.9489	28.605
2.9472	28.600
2.9455	28.615
2.9439	28.610
2.9422	28.631
2.9405	28.651
2.9389	28.621
2.9372	28.642
2.9355	28.641
2.9339	28.596
2.9322	28.579
2.9306	28.602
2.9289	28.603
2.9272	28.570
2.9256	28.555
2.9239	28.580
2.9223	28.563
2.9207	28.569
2.9190	28.579
2.9174	28.566
2.9157	28.570
2.9141	28.553
2.9124	28.549
2.9108	28.533
2.9092	28.537
2.9075	28.540
2.9059	28.562
2.9043	28.565
2.9027	28.548
2.9010	28.529
2.8994	28.526
2.8978	28.510
2.8962	28.501
2.8946	28.504
2.8929	28.529
2.8913	28.535
2.8897	28.535
2.8881	28.531
2.8865	28.492
2.8849	28.491
2.8833	28.510
2.8817	28.501
2.8801	28.495
2.8785	28.496
2.8769	28.504
2.8753	28.497
2.8737	28.533
2.8721	28.519
2.8705	28.479
2.8689	28.481
2.8673	28.500
2.8658	28.494
2.8642	28.502
2.8626	28.507
2.8610	28.477
2.8594	28.466
2.8579	28.459
2.8563	28.476
2.8547	28.503
2.8531	28.530
2.8516	28.533
2.8500	28.530
2.8484	28.522
2.8469	28.498
2.8453	28.493
2.8437	28.495
2.8422	28.501
2.8406	28.532
2.8391	28.552
2.8375	28.535
2.8360	28.526
2.8344	28.543
2.8329	28.539
2.8313	28.550
2.8298	28.536
2.8282	28.551
2.8267	28.581
2.8252	28.582
2.8236	28.579
2.8221	28.580
2.8205	28.625
2.8190	28.664
2.8175	28.674
2.8159	28.654
2.8144	28.627
2.8129	28.654
2.8114	28.698
2.8098	28.709
2.8083	28.708
2.8068	28.736
2.8053	28.787
2.8038	28.809
2.8022	28.799
2.8007	28.821
2.7992	28.860
2.7977	28.891
2.7962	28.879
2.7947	28.890
2.7932	28.927
2.7917	28.972
2.7902	28.980
2.7887	29.001
2.7872	29.083
2.7857	29.103
2.7842	29.099
2.7827	29.123
2.7812	29.157
2.7797	29.204
2.7782	29.244
2.7767	29.288
2.7752	29.304
2.7738	29.330
2.7723	29.377
2.7708	29.403
2.7693	29.461
2.7678	29.522
2.7664	29.512
2.7649	29.595
2.7634	29.699
2.7619	29.738
2.7605	29.737
2.7590	29.750
2.7575	29.797
2.7561	29.911
2.7546	29.969
2.7531	29.945
2.7517	29.946
2.7502	29.926
2.7488	29.962
2.7473	30.063
2.7458	30.132
2.7444	30.179
2.7429	30.229
2.7415	30.330
2.7400	30.406
2.7386	30.391
2.7371	30.345
2.7357	30.375
2.7343	30.412
2.7328	30.423
2.7314	30.441
2.7299	30.490
2.7285	30.515
2.7271	30.550
2.7256	30.645
2.7242	30.736
2.7228	30.692
2.7213	30.723
2.7199	30.782
2.7185	30.709
2.7171	30.706
2.7156	30.777
2.7142	30.806
2.7128	30.846
2.7114	30.955
2.7100	30.950
2.7085	30.923
2.7071	30.916
2.7057	30.898
2.7043	30.893
2.7029	30.938
2.7015	30.986
2.7001	30.978
2.6987	30.959
2.6973	31.010
2.6959	31.057
2.6945	31.091
2.6931	31.086
2.6917	31.042
2.6903	31.060
2.6889	31.049
2.6875	31.037
2.6861	31.069
2.6847	31.073
2.6833	31.063
2.6819	31.043
2.6805	31.059
2.6791	31.112
2.6778	31.123
2.6764	31.166
2.6750	31.130
2.6736	31.079
2.6722	31.116
2.6709	31.253
2.6695	31.256
2.6681	31.174
2.6667	31.235
2.6654	31.236
2.6640	31.188
2.6626	31.081
2.6613	31.048
2.6599	31.062
2.6585	31.046
2.6572	31.038
2.6558	31.066
2.6545	31.060
2.6531	31.063
2.6517	31.035
2.6504	30.988
2.6490	30.967
2.6477	30.982
2.6463	31.001
2.6450	31.002
2.6436	30.954
2.6423	30.956
2.6409	30.963
2.6396	30.934
2.6382	30.930
2.6369	30.961
2.6356	30.951
2.6342	30.954
2.6329	30.960
2.6315	31.007
2.6302	31.061
2.6289	30.991
2.6275	30.974
2.6262	30.968
2.6249	30.920
2.6236	30.905
2.6222	30.931
2.6209	31.001
2.6196	30.965
2.6183	30.888
2.6169	30.943
2.6156	30.922
2.6143	30.861
2.6130	30.862
2.6117	30.836
2.6103	30.866
2.6090	30.869
2.6077	30.876
2.6064	30.920
2.6051	30.922
2.6038	30.867
2.6025	30.849
2.6012	30.782
2.5999	30.720
2.5986	30.750
2.5973	30.827
2.5960	30.947
2.5947	31.019
2.5934	30.877
2.5921	30.727
2.5908	30.710
2.5895	30.734
2.5882	30.742
2.5869	30.751
2.5856	30.736
2.5843	30.776
2.5830	30.743
2.5817	30.674
2.5805	30.657
2.5792	30.644
2.5779	30.656
2.5766	30.659
2.5753	30.624
2.5741	30.621
2.5728	30.616
2.5715	30.581
2.5702	30.600
2.5690	30.596
2.5677	30.558
2.5664	30.541
2.5651	30.548
2.5639	30.584
2.5626	30.610
2.5613	30.575
2.5601	30.517
2.5588	30.501
2.5575	30.484
2.5563	30.451
2.5550	30.458
2.5538	30.484
2.5525	30.487
2.5513	30.455
2.5500	30.439
2.5487	30.410
2.5475	30.408
2.5462	30.408
2.5450	30.392
2.5437	30.378
2.5425	30.376
2.5413	30.377
2.5400	30.360
2.5388	30.338
2.5375	30.337
2.5363	30.361
2.5350	30.357
2.5338	30.346
2.5326	30.321
2.5313	30.309
2.5301	30.297
2.5289	30.280
2.5276	30.269
2.5264	30.273
2.5252	30.263
2.5239	30.254
2.5227	30.250
2.5215	30.223
2.5202	30.198
2.5190	30.186
2.5178	30.184
2.5166	30.211
2.5154	30.223
2.5141	30.229
2.5129	30.206
2.5117	30.173
2.5105	30.162
2.5093	30.178
2.5081	30.175
2.5068	30.131
2.5056	30.089
2.5044	30.104
2.5032	30.118
2.5020	30.106
2.5008	30.096
2.4996	30.087
2.4984	30.054
2.4972	30.051
2.4960	30.060
2.4948	30.040
2.4936	30.046
2.4924	30.032
2.4912	30.020
2.4900	30.045
2.4888	29.999
2.4876	29.977
2.4864	30.003
2.4852	29.989
2.4840	29.984
2.4828	29.981
2.4816	29.971
2.4805	29.964
2.4793	29.953
2.4781	29.943
2.4769	29.956
2.4757	29.951
2.4745	29.914
2.4734	29.893
2.4722	29.879
2.4710	29.900
2.4698	29.916
2.4686	29.909
2.4675	29.887
2.4663	29.885
2.4651	29.873
2.4640	29.889
2.4628	29.907
2.4616	29.858
2.4604	29.843
2.4593	29.869
2.4581	29.856
2.4569	29.818
2.4558	29.812
2.4546	29.825
2.4535	29.834
2.4523	29.837
2.4511	29.838
2.4500	29.814
2.4488	29.798
2.4477	29.822
2.4465	29.802
2.4454	29.770
2.4442	29.749
2.4431	29.780
2.4419	29.812
2.4408	29.786
2.4396	29.763
2.4385	29.778
2.4373	29.744
2.4362	29.714
2.4350	29.730
2.4339	29.771
2.4327	29.740
2.4316	29.696
2.4305	29.684
2.4293	29.674
2.4282	29.682
2.4270	29.696
2.4259	29.691
2.4248	29.688
2.4236	29.675
2.4225	29.671
2.4214	29.683
2.4202	29.645
2.4191	29.621
2.4180	29.629
2.4169	29.614
2.4157	29.626
2.4146	29.631
2.4135	29.616
2.4124	29.608
2.4112	29.574
2.4101	29.542
2.4090	29.584
2.4079	29.595
2.4068	29.541
2.4056	29.543
2.4045	29.589
2.4034	29.604
2.4023	29.572
2.4012	29.541
2.4001	29.517
2.3990	29.506
2.3979	29.518
2.3967	29.527
2.3956	29.491
2.3945	29.469
2.3934	29.477
2.3923	29.473
2.3912	29.479
2.3901	29.480
2.3890	29.440
2.3879	29.428
2.3868	29.435
2.3857	29.418
2.3846	29.415
2.3835	29.442
2.3824	29.423
2.3813	29.388
2.3802	29.395
2.3791	29.387
2.3781	29.313
2.3770	29.346
2.3759	29.376
2.3748	29.334
2.3737	29.326
2.3726	29.303
2.3715	29.296
2.3704	29.337
2.3694	29.324
2.3683	29.274
2.3672	29.258
2.3661	29.274
2.3650	29.278
2.3640	29.254
2.3629	29.225
2.3618	29.232
2.3607	29.230
2.3597	29.218
2.3586	29.201
2.3575	29.188
2.3564	29.206
2.3554	29.193
2.3543	29.191
2.3532	29.170
2.3522	29.161
2.3511	29.158
2.3500	29.179
2.3490	29.177
2.3479	29.153
2.3468	29.138
2.3458	29.120
2.3447	29.102
2.3436	29.097
2.3426	29.086
2.3415	29.077
2.3405	29.073
2.3394	29.097
2.3384	29.060
2.3373	29.043
2.3363	29.043
2.3352	29.018
2.3342	29.036
2.3331	29.039
2.3321	29.047
2.3310	29.023
2.3300	28.991
2.3289	29.016
2.3279	28.989
2.3268	28.984
2.3258	28.970
2.3247	28.964
2.3237	28.971
2.3226	28.947
2.3216	28.977
2.3206	28.956
2.3195	28.939
2.3185	28.990
2.3175	29.033
2.3164	28.991
2.3154	28.951
2.3144	28.961
2.3133	28.927
2.3123	28.923
2.3113	28.920
2.3102	28.929
2.3092	28.924
2.3082	28.900
2.3071	28.896
2.3061	28.877
2.3051	28.886
2.3041	28.910
2.3030	28.857
2.3020	28.803
2.3010	28.783
2.3000	28.814
2.2990	28.844
2.2979	28.832
2.2969	28.811
2.2959	28.870
2.2949	28.852
2.2939	28.799
2.2929	28.773
2.2918	28.767
2.2908	28.771
2.2898	28.795
2.2888	28.778
2.2878	28.746
2.2868	28.782
2.2858	28.831
2.2848	28.805
2.2838	28.761
2.2828	28.723
2.2818	28.670
2.2808	28.640
2.2798	28.682
2.2787	28.688
2.2777	28.665
2.2767	28.656
2.2757	28.651
2.2747	28.671
2.2738	28.674
2.2728	28.633
2.2718	28.594
2.2708	28.589
2.2698	28.622
2.2688	28.611
2.2678	28.599
2.2668	28.657
2.2658	28.702
2.2648	28.644
2.2638	28.589
2.2628	28.562
2.2618	28.553
2.2609	28.561
2.2599	28.598
2.2589	28.596
2.2579	28.561
2.2569	28.527
2.2559	28.518
2.2550	28.538
2.2540	28.552
2.2530	28.522
2.2520	28.512
2.2510	28.526
2.2501	28.496
2.2491	28.496
2.2481	28.490
2.2471	28.465
2.2462	28.504
2.2452	28.573
2.2442	28.537
2.2433	28.461
2.2423	28.434
2.2413	28.441
2.2403	28.471
2.2394	28.451
2.2384	28.449
2.2374	28.438
2.2365	28.472
2.2355	28.461
2.2345	28.429
2.2336	28.417
2.2326	28.392
2.2317	28.382
2.2307	28.391
2.2297	28.380
2.2288	28.375
2.2278	28.389
2.2269	28.389
2.2259	28.357
2.2250	28.318
2.2240	28.315
2.2231	28.371
2.2221	28.364
2.2211	28.328
2.2202	28.332
2.2192	28.327
2.2183	28.325
2.2173	28.289
2.2164	28.260
2.2155	28.252
2.2145	28.252
2.2136	28.253
2.2126	28.247
2.2117	28.262
2.2107	28.248
2.2098	28.253
2.2088	28.269
2.2079	28.260
2.2070	28.249
2.2060	28.213
2.2051	28.171
2.2041	28.155
2.2032	28.159
2.2023	28.173
2.2013	28.178
2.2004	28.181
2.1995	28.177
2.1985	28.160
2.1976	28.144
2.1967	28.173
2.1957	28.170
2.1948	28.117
2.1939	28.106
2.1930	28.143
2.1920	28.138
2.1911	28.059
2.1902	28.041
2.1893	28.075
2.1883	28.079
2.1874	28.077
2.1865	28.109
2.1856	28.092
2.1846	28.041
2.1837	28.023
2.1828	28.043
2.1819	28.053
2.1810	28.040
2.1800	28.044
2.1791	28.030
2.1782	27.980
2.1773	27.974
2.1764	27.990
2.1755	27.986
2.1746	27.962
2.1736	27.968
2.1727	27.981
2.1718	27.935
2.1709	27.894
2.1700	27.912
2.1691	27.938
2.1682	27.922
2.1673	27.891
2.1664	27.901
2.1655	27.924
2.1646	27.921
2.1637	27.930
2.1628	27.877
2.1619	27.826
2.1610	27.822
2.1601	27.845
2.1592	27.815
2.1583	27.790
2.1574	27.805
2.1565	27.790
2.1556	27.743
2.1547	27.731
2.1538	27.767
2.1529	27.746
2.1520	27.731
2.1511	27.706
2.1502	27.719
2.1493	27.742
2.1484	27.731
2.1475	27.708
2.1466	27.696
2.1458	27.710
2.1449	27.702
2.1440	27.654
2.1431	27.670
2.1422	27.723
2.1413	27.723
2.1404	27.690
2.1396	27.641
2.1387	27.620
2.1378	27.625
2.1369	27.615
2.1360	27.630
2.1352	27.629
2.1343	27.583
2.1334	27.578
2.1325	27.556
2.1316	27.523
2.1308	27.614
2.1299	27.668
2.1290	27.556
2.1281	27.495
2.1273	27.569
2.1264	27.565
2.1255	27.520
2.1247	27.499
2.1238	27.481
2.1229	27.483
2.1220	27.516
2.1212	27.513
2.1203	27.552
2.1194	27.581
2.1186	27.548
2.1177	27.541
2.1168	27.473
2.1160	27.446
2.1151	27.437
2.1143	27.418
2.1134	27.409
2.1125	27.425
2.1117	27.466
2.1108	27.413
2.1100	27.379
2.1091	27.403
2.1082	27.384
2.1074	27.400
2.1065	27.388
2.1057	27.421
2.1048	27.398
2.1040	27.339
2.1031	27.327
2.1023	27.356
2.1014	27.425
2.1005	27.391
2.0997	27.356
2.0988	27.343
2.0980	27.294
2.0971	27.300
2.0963	27.271
2.0955	27.252
2.0946	27.314
2.0938	27.340
2.0929	27.270
2.0921	27.280
2.0912	27.295
2.0904	27.275
2.0895	27.288
2.0887	27.264
2.0879	27.236
2.0870	27.272
2.0862	27.286
2.0853	27.212
2.0845	27.222
2.0837	27.263
2.0828	27.252
2.0820	27.239
2.0812	27.219
2.0803	27.207
2.0795	27.218

