Name: Glauconitic Sandstone 
Type:  Rocks
Class:  Sedimentary
Subclass: Sandstone 
Particle Size:  500 - 1500 Micrometers
File Name:  sandstone.2
Owner:  JHU
Wavelength Range:  All
Origin:  Sample No. 364,  The Hunt and Salisbury Collection at the U.S. 
Geological Survey, Denver, Co.
Description: The sample is a well-sorted, medium fine-grained, 
somewhat compacted sandstone. The strain-free, angular to 
subangular quartz grains are in a matrix of sericite, glauconite 
(mostly as autochthonous microcrystalline masses), a yellowish-
brown microcrystalline material (clay and/or glauconite?), with some 
muscovite, biotite, carbonate and minor microcline and opaques.
Measurement:  Directional (10 Degree) Hemispherical Reflectance
First Column:  X
Second Column:  Y  
X Units:  Wavelength (micrometers)
Y Units:  Reflectance (percent)
First X Value: 14.0112
Last X Value:  0.4
Number of X Values: 2844
Additional Information:  None

14.0112	1.9198
13.9734	1.9567
13.9359	1.9916
13.8985	2.0143
13.8614	2.0131
13.8244	2.0021
13.7876	1.9983
13.7511	2.0167
13.7147	2.0576
13.6785	2.1127
13.6425	2.1688
13.6067	2.2122
13.5711	2.2318
13.5356	2.2339
13.5004	2.2316
13.4653	2.2309
13.4304	2.2364
13.3957	2.2507
13.3612	2.2667
13.3269	2.2813
13.2927	2.2925
13.2587	2.2998
13.2249	2.3076
13.1912	2.3205
13.1577	2.3438
13.1244	2.3801
13.0913	2.4258
13.0583	2.4816
13.0255	2.5491
12.9929	2.6314
12.9604	2.7371
12.9281	2.8663
12.8959	2.9969
12.8639	3.1027
12.8321	3.1591
12.8004	3.147
12.7688	3.0618
12.7375	2.9277
12.7063	2.7876
12.6752	2.6804
12.6443	2.6258
12.6135	2.6292
12.5829	2.6794
12.5524	2.741
12.5221	2.7667
12.4919	2.7232
12.4619	2.5969
12.432	2.4007
12.4023	2.1598
12.3727	1.9145
12.3432	1.71
12.3139	1.5751
12.2847	1.5121
12.2557	1.5092
12.2268	1.546
12.198	1.6038
12.1694	1.6617
12.1409	1.7102
12.1125	1.7516
12.0843	1.7867
12.0562	1.8179
12.0282	1.8493
12.0003	1.882
11.9726	1.9188
11.945	1.9588
11.9176	2.0021
11.8903	2.0476
11.8631	2.0928
11.836	2.1388
11.809	2.1851
11.7822	2.2282
11.7555	2.2677
11.7289	2.3048
11.7024	2.3411
11.676	2.3765
11.6498	2.4122
11.6237	2.4507
11.5977	2.4885
11.5718	2.5194
11.546	2.5431
11.5203	2.5632
11.4948	2.5825
11.4694	2.6031
11.444	2.6309
11.4188	2.6721
11.3937	2.722
11.3688	2.7744
11.3439	2.8253
11.3191	2.8685
11.2944	2.8965
11.2699	2.9075
11.2455	2.9068
11.2211	2.9015
11.1969	2.8977
11.1727	2.901
11.1487	2.9149
11.1248	2.934
11.101	2.9541
11.0773	2.9716
11.0536	2.9843
11.0301	2.9919
11.0067	2.9969
10.9834	3.0027
10.9602	3.0112
10.937	3.0199
10.914	3.0268
10.8911	3.0316
10.8682	3.0338
10.8455	3.0333
10.8229	3.0345
10.8003	3.0441
10.7779	3.064
10.7555	3.0909
10.7332	3.1209
10.7111	3.1515
10.689	3.1795
10.667	3.2031
10.6451	3.2264
10.6233	3.2549
10.6015	3.2909
10.5799	3.3347
10.5584	3.3865
10.5369	3.4431
10.5155	3.4989
10.4942	3.553
10.473	3.6044
10.4519	3.6551
10.4309	3.7097
10.4099	3.7698
10.3891	3.8353
10.3683	3.9026
10.3476	3.9666
10.327	4.0272
10.3065	4.0834
10.286	4.1378
10.2656	4.197
10.2454	4.2616
10.2251	4.3325
10.205	4.408
10.185	4.4851
10.165	4.5588
10.1451	4.6263
10.1253	4.6864
10.1056	4.7418
10.0859	4.7921
10.0663	4.8419
10.0468	4.8975
10.0274	4.9606
10.008	5.0285
9.9887	5.1033
9.9695	5.1859
9.9504	5.2715
9.9313	5.3548
9.9123	5.4364
9.8934	5.5118
9.8746	5.5756
9.8558	5.6297
9.8371	5.6831
9.8185	5.7436
9.7999	5.8161
9.7814	5.9101
9.763	6.0293
9.7447	6.1675
9.7264	6.3195
9.7082	6.4817
9.69	6.6482
9.6719	6.8112
9.6539	6.9664
9.636	7.1153
9.6181	7.255
9.6003	7.3794
9.5825	7.4828
9.5649	7.5598
9.5472	7.6093
9.5297	7.6345
9.5122	7.6471
9.4948	7.6697
9.4774	7.7258
9.4601	7.833
9.4429	8.0032
9.4257	8.2405
9.4086	8.5438
9.3916	8.8972
9.3746	9.2775
9.3577	9.6553
9.3408	10.0027
9.324	10.2965
9.3073	10.5259
9.2906	10.6907
9.274	10.8039
9.2574	10.8786
9.2409	10.9279
9.2245	10.9613
9.2081	10.986
9.1918	11.0087
9.1755	11.0348
9.1593	11.0647
9.1431	11.0967
9.127	11.1236
9.111	11.1391
9.095	11.141
9.0791	11.1291
9.0632	11.1102
9.0474	11.0914
9.0316	11.0766
9.0159	11.0697
9.0003	11.0695
8.9847	11.0702
8.9691	11.067
8.9536	11.057
8.9382	11.0408
8.9228	11.019
8.9075	10.9936
8.8922	10.9697
8.877	10.9448
8.8618	10.9108
8.8467	10.8618
8.8316	10.7958
8.8166	10.7151
8.8016	10.6245
8.7867	10.5307
8.7718	10.4374
8.757	10.3402
8.7422	10.2326
8.7275	10.0962
8.7129	9.8935
8.6982	9.5904
8.6837	9.1842
8.6692	8.7145
8.6547	8.2603
8.6403	7.9292
8.6259	7.8194
8.6116	7.9656
8.5973	8.3134
8.583	8.7583
8.5688	9.1945
8.5547	9.5435
8.5406	9.7731
8.5266	9.9003
8.5126	9.9675
8.4986	10.0091
8.4847	10.0374
8.4708	10.0601
8.457	10.0814
8.4432	10.1046
8.4295	10.132
8.4158	10.1685
8.4022	10.2168
8.3886	10.2737
8.375	10.3359
8.3615	10.4032
8.3481	10.4783
8.3347	10.5637
8.3213	10.6603
8.3079	10.7711
8.2946	10.897
8.2814	11.0374
8.2682	11.1862
8.255	11.3367
8.2419	11.483
8.2288	11.6109
8.2158	11.7042
8.2028	11.7442
8.1898	11.7121
8.1769	11.5922
8.164	11.3716
8.1512	11.0486
8.1384	10.6369
8.1256	10.1599
8.1129	9.6476
8.1002	9.1312
8.0876	8.636
8.075	8.1763
8.0624	7.7541
8.0499	7.366
8.0374	7.0093
8.025	6.6772
8.0126	6.3652
8.0002	6.0671
7.9879	5.7778
7.9756	5.4921
7.9634	5.2064
7.9512	4.922
7.939	4.6437
7.9268	4.3772
7.9147	4.1279
7.9027	3.8991
7.8906	3.6924
7.8786	3.5087
7.8667	3.3487
7.8548	3.2116
7.8429	3.0941
7.831	2.9946
7.8192	2.9113
7.8075	2.8434
7.7957	2.7873
7.784	2.741
7.7723	2.701
7.7607	2.66
7.7491	2.6146
7.7375	2.5641
7.726	2.5108
7.7145	2.4574
7.7031	2.4062
7.6916	2.3572
7.6802	2.3101
7.6689	2.2636
7.6575	2.2179
7.6462	2.1741
7.635	2.1325
7.6238	2.0938
7.6126	2.0561
7.6014	2.0203
7.5903	1.9889
7.5792	1.9626
7.5681	1.9418
7.5571	1.9251
7.5461	1.9119
7.5351	1.8992
7.5242	1.8822
7.5133	1.8602
7.5024	1.8344
7.4916	1.8055
7.4807	1.7761
7.47	1.7499
7.4592	1.732
7.4485	1.7224
7.4378	1.7167
7.4272	1.7102
7.4165	1.7026
7.4059	1.6942
7.3954	1.6839
7.3848	1.674
7.3743	1.6674
7.3639	1.6629
7.3534	1.6566
7.343	1.6468
7.3326	1.6385
7.3223	1.6315
7.3119	1.6257
7.3016	1.6239
7.2914	1.6279
7.2811	1.6368
7.2709	1.6473
7.2607	1.6583
7.2506	1.6712
7.2404	1.6815
7.2303	1.6873
7.2203	1.6901
7.2102	1.6901
7.2002	1.6861
7.1902	1.676
7.1803	1.6624
7.1703	1.6492
7.1604	1.6377
7.1506	1.6298
7.1407	1.6262
7.1309	1.6282
7.1211	1.6317
7.1113	1.6334
7.1016	1.632
7.0919	1.6287
7.0822	1.6227
7.0725	1.6152
7.0629	1.6066
7.0533	1.6011
7.0437	1.5999
7.0341	1.6021
7.0246	1.6059
7.0151	1.6099
7.0056	1.6136
6.9962	1.6141
6.9867	1.6133
6.9773	1.6154
6.9679	1.6209
6.9586	1.6315
6.9493	1.6471
6.94	1.6645
6.9307	1.681
6.9214	1.6932
6.9122	1.7016
6.903	1.7052
6.8938	1.7037
6.8847	1.7014
6.8755	1.7028
6.8664	1.7087
6.8573	1.7231
6.8483	1.7469
6.8393	1.7743
6.8302	1.7995
6.8213	1.8174
6.8123	1.827
6.8034	1.8277
6.7944	1.8234
6.7855	1.8229
6.7767	1.8299
6.7678	1.8408
6.759	1.8538
6.7502	1.8643
6.7414	1.8698
6.7327	1.8695
6.7239	1.8643
6.7152	1.8597
6.7065	1.8599
6.6979	1.8681
6.6892	1.8818
6.6806	1.8946
6.672	1.9059
6.6634	1.914
6.6549	1.9162
6.6464	1.9172
6.6378	1.9227
6.6294	1.9361
6.6209	1.9504
6.6124	1.9588
6.604	1.959
6.5956	1.9519
6.5872	1.9414
6.5789	1.9341
6.5705	1.9341
6.5622	1.9432
6.5539	1.959
6.5456	1.9786
6.5374	1.9964
6.5292	2.011
6.5209	2.0229
6.5128	2.0339
6.5046	2.0437
6.4964	2.0564
6.4883	2.0794
6.4802	2.1141
6.4721	2.1542
6.464	2.1911
6.456	2.2138
6.448	2.2155
6.4399	2.1937
6.432	2.1552
6.424	2.1143
6.416	2.0794
6.4081	2.0553
6.4002	2.0385
6.3923	2.0196
6.3844	1.9927
6.3766	1.9583
6.3687	1.9212
6.3609	1.8865
6.3531	1.8566
6.3454	1.8337
6.3376	1.8164
6.3299	1.8005
6.3221	1.7834
6.3144	1.7674
6.3068	1.752
6.2991	1.7353
6.2914	1.7176
6.2838	1.6989
6.2762	1.6788
6.2686	1.6581
6.2611	1.6382
6.2535	1.6214
6.246	1.6086
6.2385	1.5997
6.231	1.5935
6.2235	1.588
6.216	1.5802
6.2086	1.5704
6.2011	1.5616
6.1937	1.558
6.1863	1.5614
6.179	1.5709
6.1716	1.5862
6.1643	1.6088
6.157	1.6348
6.1496	1.6581
6.1424	1.6767
6.1351	1.6925
6.1278	1.7024
6.1206	1.708
6.1134	1.7157
6.1062	1.7311
6.099	1.7516
6.0918	1.7686
6.0847	1.7786
6.0776	1.7808
6.0704	1.7746
6.0633	1.766
6.0563	1.7623
6.0492	1.7703
6.0421	1.7899
6.0351	1.8133
6.0281	1.8332
6.0211	1.8463
6.0141	1.8511
6.0071	1.849
6.0002	1.8425
5.9932	1.8382
5.9863	1.8401
5.9794	1.8442
5.9725	1.8445
5.9657	1.8413
5.9588	1.8377
5.952	1.8322
5.9451	1.8301
5.9383	1.837
5.9315	1.8564
5.9247	1.883
5.918	1.9054
5.9112	1.922
5.9045	1.9332
5.8978	1.9411
5.8911	1.9519
5.8844	1.9708
5.8777	2.003
5.8711	2.0468
5.8644	2.0913
5.8578	2.1323
5.8512	2.1667
5.8446	2.1947
5.838	2.216
5.8314	2.2344
5.8249	2.2588
5.8184	2.2938
5.8118	2.3368
5.8053	2.3808
5.7988	2.4181
5.7923	2.4452
5.7859	2.4588
5.7794	2.4615
5.773	2.4608
5.7666	2.4658
5.7602	2.4825
5.7538	2.5063
5.7474	2.5311
5.741	2.5546
5.7347	2.5725
5.7283	2.5818
5.722	2.5821
5.7157	2.5801
5.7094	2.5803
5.7031	2.5849
5.6969	2.5899
5.6906	2.5926
5.6844	2.5902
5.6782	2.5763
5.6719	2.5483
5.6657	2.5079
5.6596	2.4615
5.6534	2.4172
5.6472	2.3751
5.6411	2.3393
5.6349	2.3124
5.6288	2.2925
5.6227	2.2772
5.6166	2.2648
5.6106	2.2543
5.6045	2.2447
5.5984	2.2325
5.5924	2.2172
5.5864	2.2022
5.5804	2.1916
5.5744	2.1897
5.5684	2.1964
5.5624	2.21
5.5564	2.2296
5.5505	2.2505
5.5445	2.2708
5.5386	2.2925
5.5327	2.3187
5.5268	2.3495
5.5209	2.3821
5.5151	2.4141
5.5092	2.4455
5.5033	2.4732
5.4975	2.4962
5.4917	2.5153
5.4859	2.532
5.4801	2.5481
5.4743	2.5639
5.4685	2.5816
5.4628	2.6009
5.457	2.6196
5.4513	2.6316
5.4455	2.6338
5.4398	2.6263
5.4341	2.6117
5.4284	2.5899
5.4228	2.562
5.4171	2.5323
5.4114	2.5003
5.4058	2.4656
5.4002	2.4299
5.3945	2.3971
5.3889	2.3672
5.3833	2.3371
5.3778	2.305
5.3722	2.2746
5.3666	2.249
5.3611	2.2325
5.3555	2.2289
5.35	2.237
5.3445	2.2526
5.339	2.2686
5.3335	2.2797
5.328	2.2849
5.3225	2.2863
5.3171	2.2865
5.3116	2.2885
5.3062	2.2943
5.3008	2.3043
5.2954	2.3191
5.29	2.3395
5.2846	2.365
5.2792	2.3959
5.2738	2.4299
5.2684	2.4646
5.2631	2.4995
5.2578	2.5355
5.2524	2.5751
5.2471	2.6206
5.2418	2.6718
5.2365	2.729
5.2312	2.7873
5.226	2.8421
5.2207	2.8934
5.2154	2.94
5.2102	2.9814
5.205	3.0163
5.1998	3.0434
5.1945	3.0622
5.1893	3.0699
5.1842	3.0708
5.179	3.0721
5.1738	3.0743
5.1686	3.0788
5.1635	3.0881
5.1584	3.0991
5.1532	3.1075
5.1481	3.1115
5.143	3.1135
5.1379	3.1153
5.1328	3.1158
5.1277	3.1168
5.1227	3.1226
5.1176	3.1319
5.1126	3.1397
5.1075	3.1424
5.1025	3.1388
5.0975	3.1276
5.0925	3.1093
5.0875	3.0881
5.0825	3.0697
5.0775	3.0577
5.0726	3.0499
5.0676	3.0443
5.0627	3.0409
5.0577	3.0386
5.0528	3.0393
5.0479	3.0426
5.043	3.0486
5.038	3.0546
5.0332	3.0567
5.0283	3.0544
5.0234	3.0486
5.0185	3.0434
5.0137	3.0446
5.0088	3.0546
5.004	3.0721
4.9992	3.0936
4.9944	3.1175
4.9896	3.1424
4.9848	3.1709
4.98	3.2079
4.9752	3.2577
4.9704	3.3197
4.9657	3.3908
4.9609	3.4642
4.9562	3.5343
4.9514	3.595
4.9467	3.6448
4.942	3.6868
4.9373	3.7218
4.9326	3.7568
4.9279	3.799
4.9232	3.8544
4.9186	3.9303
4.9139	4.0307
4.9092	4.1566
4.9046	4.3038
4.9	4.4655
4.8953	4.6354
4.8907	4.8062
4.8861	4.972
4.8815	5.1301
4.8769	5.278
4.8723	5.4137
4.8678	5.5354
4.8632	5.6417
4.8586	5.7354
4.8541	5.8221
4.8495	5.9061
4.845	5.9901
4.8405	6.074
4.836	6.1556
4.8315	6.2319
4.827	6.2987
4.8225	6.3561
4.818	6.4095
4.8135	6.4628
4.809	6.5174
4.8046	6.5719
4.8001	6.626
4.7957	6.6786
4.7913	6.7267
4.7868	6.7697
4.7824	6.8134
4.778	6.8602
4.7736	6.9115
4.7692	6.9669
4.7648	7.0267
4.7605	7.0894
4.7561	7.1502
4.7517	7.2062
4.7474	7.2584
4.7431	7.3072
4.7387	7.3512
4.7344	7.3912
4.7301	7.4265
4.7258	7.4553
4.7215	7.4749
4.7172	7.4828
4.7129	7.4773
4.7086	7.4586
4.7043	7.4287
4.7	7.3914
4.6958	7.3524
4.6915	7.3213
4.6873	7.3062
4.6831	7.3129
4.6788	7.3445
4.6746	7.4016
4.6704	7.4806
4.6662	7.5734
4.662	7.6749
4.6578	7.7799
4.6536	7.8862
4.6495	7.9917
4.6453	8.0948
4.6411	8.1941
4.637	8.2888
4.6328	8.3785
4.6287	8.4635
4.6246	8.5451
4.6205	8.6255
4.6163	8.7045
4.6122	8.7798
4.6081	8.8492
4.604	8.9118
4.6	8.9697
4.5959	9.024
4.5918	9.0755
4.5877	9.1246
4.5837	9.1714
4.5796	9.2141
4.5756	9.2497
4.5716	9.2765
4.5675	9.2968
4.5635	9.311
4.5595	9.3173
4.5555	9.3152
4.5515	9.3054
4.5475	9.2873
4.5435	9.259
4.5395	9.2227
4.5356	9.1796
4.5316	9.1314
4.5276	9.0765
4.5237	9.0114
4.5197	8.9346
4.5158	8.8466
4.5119	8.7498
4.508	8.6499
4.504	8.5556
4.5001	8.4771
4.4962	8.4197
4.4923	8.3798
4.4884	8.352
4.4846	8.331
4.4807	8.3108
4.4768	8.2917
4.473	8.2792
4.4691	8.2862
4.4652	8.3189
4.4614	8.3762
4.4576	8.451
4.4537	8.5345
4.4499	8.6185
4.4461	8.6972
4.4423	8.7685
4.4385	8.8381
4.4347	8.9092
4.4309	8.9798
4.4271	9.0489
4.4233	9.1188
4.4196	9.1915
4.4158	9.2679
4.412	9.3464
4.4083	9.4296
4.4045	9.5172
4.4008	9.6066
4.3971	9.6981
4.3934	9.7921
4.3896	9.89
4.3859	9.9897
4.3822	10.088
4.3785	10.1835
4.3748	10.2764
4.3711	10.3677
4.3674	10.4565
4.3638	10.5431
4.3601	10.6293
4.3564	10.7141
4.3528	10.7938
4.3491	10.8654
4.3455	10.9271
4.3418	10.9769
4.3382	11.0142
4.3346	11.042
4.331	11.0645
4.3273	11.0843
4.3237	11.1032
4.3201	11.1205
4.3165	11.1346
4.3129	11.1427
4.3094	11.145
4.3058	11.1444
4.3022	11.1415
4.2986	11.1374
4.2951	11.1346
4.2915	11.1355
4.288	11.1399
4.2844	11.1446
4.2809	11.1505
4.2774	11.1608
4.2738	11.1759
4.2703	11.1985
4.2668	11.2345
4.2633	11.2863
4.2598	11.347
4.2563	11.408
4.2528	11.4626
4.2493	11.5052
4.2458	11.5324
4.2424	11.5477
4.2389	11.5597
4.2354	11.5738
4.232	11.5917
4.2285	11.6154
4.2251	11.6448
4.2216	11.6755
4.2182	11.7039
4.2148	11.7288
4.2113	11.7511
4.2079	11.7703
4.2045	11.7863
4.2011	11.8018
4.1977	11.8179
4.1943	11.8351
4.1909	11.8552
4.1875	11.881
4.1841	11.9126
4.1808	11.9494
4.1774	11.9899
4.174	12.0299
4.1707	12.0684
4.1673	12.1043
4.164	12.1356
4.1606	12.1639
4.1573	12.1909
4.154	12.2181
4.1506	12.2454
4.1473	12.2731
4.144	12.3023
4.1407	12.3323
4.1374	12.3601
4.1341	12.3863
4.1308	12.4139
4.1275	12.4419
4.1242	12.4703
4.1209	12.498
4.1177	12.5254
4.1144	12.5498
4.1111	12.5701
4.1079	12.5888
4.1046	12.6089
4.1014	12.6313
4.0981	12.6552
4.0949	12.6796
4.0917	12.7024
4.0884	12.7211
4.0852	12.7332
4.082	12.7407
4.0788	12.745
4.0756	12.746
4.0724	12.7426
4.0692	12.7364
4.066	12.7292
4.0628	12.7191
4.0596	12.7058
4.0565	12.6897
4.0533	12.6718
4.0501	12.6493
4.047	12.6187
4.0438	12.5807
4.0406	12.537
4.0375	12.4902
4.0344	12.4428
4.0312	12.3976
4.0281	12.3574
4.025	12.3212
4.0218	12.2868
4.0187	12.255
4.0156	12.2282
4.0125	12.2077
4.0094	12.1911
4.0063	12.1763
4.0032	12.1607
4.0001	12.1425
3.997	12.1191
3.994	12.0918
3.9909	12.0664
3.9878	12.0454
3.9847	12.0299
3.9817	12.0226
3.9786	12.0263
3.9756	12.0392
3.9725	12.0568
3.9695	12.0782
3.9665	12.1016
3.9634	12.1253
3.9604	12.1481
3.9574	12.172
3.9544	12.199
3.9513	12.2316
3.9483	12.2701
3.9453	12.3139
3.9423	12.3596
3.9393	12.4024
3.9363	12.4394
3.9333	12.467
3.9304	12.4854
3.9274	12.5002
3.9244	12.5131
3.9214	12.5232
3.9185	12.5277
3.9155	12.5275
3.9126	12.522
3.9096	12.5108
3.9067	12.4969
3.9037	12.4832
3.9008	12.4713
3.8979	12.4615
3.8949	12.4527
3.892	12.4445
3.8891	12.4364
3.8862	12.4265
3.8833	12.4122
3.8804	12.3926
3.8775	12.3725
3.8746	12.3564
3.8717	12.3433
3.8688	12.332
3.8659	12.3232
3.863	12.3129
3.8601	12.2971
3.8573	12.2787
3.8544	12.2638
3.8515	12.2538
3.8487	12.2464
3.8458	12.2414
3.843	12.2402
3.8401	12.2406
3.8373	12.2447
3.8344	12.2557
3.8316	12.2729
3.8288	12.2918
3.8259	12.3083
3.8231	12.3224
3.8203	12.3347
3.8175	12.344
3.8147	12.3538
3.8119	12.3655
3.8091	12.3777
3.8063	12.3883
3.8035	12.3964
3.8007	12.4034
3.7979	12.4093
3.7951	12.4143
3.7924	12.4189
3.7896	12.423
3.7868	12.4241
3.7841	12.4182
3.7813	12.4043
3.7785	12.382
3.7758	12.3528
3.773	12.3199
3.7703	12.2861
3.7676	12.2519
3.7648	12.2172
3.7621	12.1806
3.7594	12.144
3.7566	12.1083
3.7539	12.0744
3.7512	12.0437
3.7485	12.0148
3.7458	11.9849
3.7431	11.954
3.7404	11.9239
3.7377	11.8951
3.735	11.8696
3.7323	11.8473
3.7296	11.8269
3.7269	11.8059
3.7242	11.7822
3.7216	11.7583
3.7189	11.7361
3.7162	11.714
3.7136	11.6928
3.7109	11.6736
3.7083	11.6588
3.7056	11.6453
3.703	11.6337
3.7003	11.6243
3.6977	11.614
3.695	11.597
3.6924	11.5714
3.6898	11.5391
3.6872	11.5044
3.6845	11.4674
3.6819	11.4327
3.6793	11.4045
3.6767	11.3841
3.6741	11.3688
3.6715	11.3558
3.6689	11.3412
3.6663	11.3214
3.6637	11.2913
3.6611	11.2528
3.6585	11.208
3.656	11.1606
3.6534	11.1183
3.6508	11.0819
3.6482	11.0494
3.6457	11.0187
3.6431	10.9857
3.6406	10.948
3.638	10.9037
3.6355	10.8542
3.6329	10.8049
3.6304	10.7589
3.6278	10.7158
3.6253	10.6751
3.6227	10.6345
3.6202	10.5933
3.6177	10.5501
3.6152	10.5043
3.6127	10.4587
3.6101	10.4149
3.6076	10.3699
3.6051	10.3218
3.6026	10.2708
3.6001	10.2175
3.5976	10.1622
3.5951	10.1074
3.5926	10.0555
3.5901	10.005
3.5876	9.9502
3.5852	9.8905
3.5827	9.8251
3.5802	9.7579
3.5777	9.6906
3.5753	9.6265
3.5728	9.5672
3.5704	9.5095
3.5679	9.4504
3.5654	9.3902
3.563	9.3311
3.5605	9.2755
3.5581	9.2239
3.5557	9.1777
3.5532	9.1365
3.5508	9.0977
3.5484	9.0592
3.5459	9.0195
3.5435	8.9779
3.5411	8.9362
3.5387	8.8951
3.5363	8.858
3.5338	8.825
3.5314	8.7944
3.529	8.7633
3.5266	8.7272
3.5242	8.6848
3.5218	8.6384
3.5195	8.5926
3.5171	8.5525
3.5147	8.5194
3.5123	8.4924
3.5099	8.4685
3.5075	8.446
3.5052	8.4228
3.5028	8.402
3.5004	8.386
3.4981	8.3771
3.4957	8.3728
3.4934	8.3666
3.491	8.3522
3.4887	8.3302
3.4863	8.3013
3.484	8.2697
3.4816	8.2407
3.4793	8.2178
3.477	8.1994
3.4746	8.18
3.4723	8.1572
3.47	8.1348
3.4677	8.1127
3.4653	8.0885
3.463	8.0637
3.4607	8.0395
3.4584	8.0125
3.4561	7.9814
3.4538	7.9491
3.4515	7.9185
3.4492	7.886
3.4469	7.8486
3.4446	7.811
3.4423	7.778
3.44	7.7491
3.4378	7.724
3.4355	7.7034
3.4332	7.6816
3.4309	7.6524
3.4287	7.6153
3.4264	7.5725
3.4241	7.5285
3.4219	7.4863
3.4196	7.4469
3.4174	7.4088
3.4151	7.3696
3.4129	7.3268
3.4106	7.2811
3.4084	7.2353
3.4061	7.1938
3.4039	7.16
3.4017	7.1359
3.3994	7.1179
3.3972	7.098
3.395	7.0686
3.3928	7.0291
3.3906	6.9835
3.3883	6.9359
3.3861	6.8914
3.3839	6.853
3.3817	6.8182
3.3795	6.7808
3.3773	6.7394
3.3751	6.697
3.3729	6.659
3.3707	6.6274
3.3685	6.6009
3.3663	6.574
3.3641	6.5435
3.362	6.5083
3.3598	6.4709
3.3576	6.4356
3.3554	6.4047
3.3533	6.3791
3.3511	6.3537
3.3489	6.3257
3.3468	6.2982
3.3446	6.2741
3.3425	6.2551
3.3403	6.241
3.3382	6.2284
3.336	6.2147
3.3339	6.1977
3.3317	6.1781
3.3296	6.1585
3.3274	6.1388
3.3253	6.1178
3.3232	6.093
3.321	6.0626
3.3189	6.0304
3.3168	5.9994
3.3147	5.9735
3.3126	5.9551
3.3104	5.9429
3.3083	5.931
3.3062	5.9154
3.3041	5.8924
3.302	5.8626
3.2999	5.8279
3.2978	5.7941
3.2957	5.7668
3.2936	5.7474
3.2915	5.7311
3.2894	5.7147
3.2874	5.6964
3.2853	5.6759
3.2832	5.6548
3.2811	5.6367
3.279	5.6254
3.277	5.6214
3.2749	5.6197
3.2728	5.6151
3.2708	5.6048
3.2687	5.5872
3.2666	5.5637
3.2646	5.5397
3.2625	5.519
3.2605	5.5037
3.2584	5.4938
3.2564	5.4869
3.2543	5.4773
3.2523	5.4637
3.2503	5.4479
3.2482	5.4321
3.2462	5.4182
3.2442	5.407
3.2421	5.3991
3.2401	5.3919
3.2381	5.3792
3.2361	5.3601
3.234	5.3347
3.232	5.3065
3.23	5.2799
3.228	5.256
3.226	5.2363
3.224	5.2187
3.222	5.1986
3.22	5.1761
3.218	5.1526
3.216	5.1287
3.214	5.1072
3.212	5.0861
3.21	5.0668
3.208	5.0486
3.206	5.028
3.204	5.0034
3.2021	4.9747
3.2001	4.943
3.1981	4.9122
3.1961	4.8849
3.1942	4.865
3.1922	4.8534
3.1902	4.8457
3.1883	4.8376
3.1863	4.8263
3.1844	4.8117
3.1824	4.7943
3.1805	4.7755
3.1785	4.7559
3.1766	4.737
3.1746	4.7198
3.1727	4.7035
3.1707	4.6894
3.1688	4.6772
3.1669	4.6663
3.1649	4.6557
3.163	4.6444
3.1611	4.6337
3.1591	4.621
3.1572	4.6026
3.1553	4.5772
3.1534	4.5473
3.1515	4.5181
3.1495	4.4928
3.1476	4.4746
3.1457	4.4648
3.1438	4.4565
3.1419	4.4418
3.14	4.4208
3.1381	4.398
3.1362	4.3796
3.1343	4.365
3.1324	4.3526
3.1305	4.3433
3.1286	4.333
3.1268	4.321
3.1249	4.3076
3.123	4.2975
3.1211	4.2892
3.1192	4.2748
3.1174	4.255
3.1155	4.2346
3.1136	4.2169
3.1117	4.2042
3.1099	4.1952
3.108	4.1889
3.1061	4.1813
3.1043	4.1669
3.1024	4.1504
3.1006	4.1358
3.0987	4.1227
3.0969	4.1092
3.095	4.0971
3.0932	4.086
3.0913	4.0752
3.0895	4.0645
3.0876	4.059
3.0858	4.0563
3.084	4.0499
3.0821	4.0399
3.0803	4.0284
3.0785	4.015
3.0766	3.9963
3.0748	3.9743
3.073	3.9532
3.0712	3.9303
3.0694	3.9059
3.0675	3.8877
3.0657	3.8777
3.0639	3.8772
3.0621	3.8838
3.0603	3.8913
3.0585	3.8944
3.0567	3.8884
3.0549	3.8757
3.0531	3.8609
3.0513	3.8458
3.0495	3.836
3.0477	3.8307
3.0459	3.8257
3.0441	3.8169
3.0423	3.8049
3.0406	3.7939
3.0388	3.7846
3.037	3.7746
3.0352	3.7668
3.0334	3.7643
3.0317	3.765
3.0299	3.7635
3.0281	3.7575
3.0264	3.7462
3.0246	3.7288
3.0228	3.7056
3.0211	3.6824
3.0193	3.6664
3.0176	3.6616
3.0158	3.6649
3.014	3.6687
3.0123	3.6683
3.0105	3.6654
3.0088	3.6606
3.007	3.6525
3.0053	3.6456
3.0036	3.6468
3.0018	3.6546
3.0001	3.6597
2.9984	3.6589
2.9966	3.653
2.9949	3.6388
2.9932	3.6194
2.9914	3.6015
2.9897	3.5908
2.988	3.5898
2.9863	3.5917
2.9845	3.5953
2.9828	3.5991
2.9811	3.5948
2.9794	3.5865
2.9777	3.5781
2.976	3.5711
2.9743	3.5666
2.9726	3.5618
2.9709	3.5583
2.9692	3.5544
2.9675	3.5434
2.9658	3.5286
2.9641	3.5157
2.9624	3.5047
2.9607	3.4967
2.959	3.4941
2.9573	3.4962
2.9556	3.5006
2.9539	3.5049
2.9523	3.5092
2.9506	3.5108
2.9489	3.5104
2.9472	3.5107
2.9455	3.5118
2.9439	3.5111
2.9422	3.5092
2.9405	3.5072
2.9389	3.5032
2.9372	3.4962
2.9355	3.4936
2.9339	3.4974
2.9322	3.5022
2.9306	3.5049
2.9289	3.5054
2.9272	3.5054
2.9256	3.5075
2.9239	3.5147
2.9223	3.5296
2.9207	3.547
2.919	3.5595
2.9174	3.5616
2.9157	3.5544
2.9141	3.5437
2.9124	3.5351
2.9108	3.5336
2.9092	3.5381
2.9075	3.5505
2.9059	3.5666
2.9043	3.5844
2.9027	3.6032
2.901	3.6237
2.8994	3.6418
2.8978	3.6568
2.8962	3.6714
2.8946	3.6853
2.8929	3.6958
2.8913	3.7059
2.8897	3.7152
2.8881	3.7171
2.8865	3.708
2.8849	3.6966
2.8833	3.692
2.8817	3.6958
2.8801	3.7075
2.8785	3.7266
2.8769	3.7462
2.8753	3.753
2.8737	3.7446
2.8721	3.7291
2.8705	3.7178
2.8689	3.7164
2.8673	3.726
2.8658	3.7454
2.8642	3.7681
2.8626	3.7852
2.861	3.793
2.8594	3.7908
2.8579	3.7846
2.8563	3.7776
2.8547	3.7711
2.8531	3.7666
2.8516	3.7643
2.85	3.7638
2.8484	3.765
2.8469	3.7673
2.8453	3.7714
2.8437	3.775
2.8422	3.7726
2.8406	3.7616
2.8391	3.7417
2.8375	3.7164
2.836	3.6915
2.8344	3.6714
2.8329	3.6544
2.8313	3.6415
2.8298	3.6302
2.8282	3.6204
2.8267	3.6101
2.8252	3.6006
2.8236	3.596
2.8221	3.5955
2.8205	3.593
2.819	3.5891
2.8175	3.5865
2.8159	3.5847
2.8144	3.5824
2.8129	3.5779
2.8114	3.5724
2.8098	3.5625
2.8083	3.5437
2.8068	3.5161
2.8053	3.4903
2.8038	3.4766
2.8022	3.4771
2.8007	3.4896
2.7992	3.509
2.7977	3.5248
2.7962	3.5245
2.7947	3.5009
2.7932	3.4657
2.7917	3.4288
2.7902	3.3938
2.7887	3.3649
2.7872	3.3427
2.7857	3.3223
2.7842	3.2962
2.7827	3.2615
2.7812	3.228
2.7797	3.1958
2.7782	3.1613
2.7767	3.1278
2.7752	3.0934
2.7738	3.0546
2.7723	3.0127
2.7708	2.9684
2.7693	2.9264
2.7678	2.8831
2.7664	2.8421
2.7649	2.8077
2.7634	2.7787
2.7619	2.7567
2.7605	2.7426
2.759	2.7337
2.7575	2.7294
2.7561	2.728
2.7546	2.7375
2.7531	2.7608
2.7517	2.7964
2.7502	2.8421
2.7488	2.8895
2.7473	2.9337
2.7458	2.9742
2.7444	3.0091
2.7429	3.0481
2.7415	3.0948
2.74	3.1513
2.7386	3.2161
2.7371	3.2828
2.7357	3.3535
2.7343	3.4336
2.7328	3.5228
2.7314	3.6259
2.7299	3.7422
2.7285	3.869
2.7271	4.0042
2.7256	4.1478
2.7242	4.3116
2.7228	4.5157
2.7213	4.7694
2.7199	5.0753
2.7185	5.423
2.7171	5.7934
2.7156	6.1671
2.7142	6.5305
2.7128	6.8844
2.7114	7.2431
2.71	7.6172
2.7085	8.0058
2.7071	8.3948
2.7057	8.7683
2.7043	9.114
2.7029	9.427
2.7015	9.7043
2.7001	9.955
2.6987	10.1929
2.6973	10.4347
2.6959	10.6939
2.6945	10.987
2.6931	11.3305
2.6917	11.719
2.6903	12.1239
2.6889	12.5242
2.6875	12.9005
2.6861	13.2405
2.6847	13.529
2.6833	13.7623
2.6819	13.9518
2.6805	14.1184
2.6791	14.2705
2.6778	14.4155
2.6764	14.5604
2.675	14.7035
2.6736	14.8174
2.6722	14.8799
2.6709	14.9072
2.6695	14.9515
2.6681	15.0332
2.6667	15.1527
2.6654	15.3299
2.664	15.5534
2.6626	15.7788
2.6613	15.9664
2.6599	16.1106
2.6585	16.2255
2.6572	16.3126
2.6558	16.3767
2.6545	16.4466
2.6531	16.5216
2.6517	16.597
2.6504	16.6655
2.649	16.7229
2.6477	16.7712
2.6463	16.8193
2.645	16.8733
2.6436	16.9349
2.6423	16.9932
2.6409	17.0478
2.6396	17.0966
2.6382	17.1222
2.6369	17.1208
2.6356	17.0994
2.6342	17.0547
2.6329	16.9918
2.6315	16.926
2.6302	16.8969
2.6289	16.9234
2.6275	16.9765
2.6262	17.0456
2.6249	17.1138
2.6236	17.1389
2.6222	17.1129
2.6209	17.0564
2.6196	17.0217
2.6183	17.0289
2.6169	17.0645
2.6156	17.1426
2.6143	17.2433
2.613	17.317
2.6117	17.3378
2.6103	17.3036
2.609	17.242
2.6077	17.1748
2.6064	17.1251
2.6051	17.1461
2.6038	17.2559
2.6025	17.395
2.6012	17.4911
2.5999	17.5072
2.5986	17.4457
2.5973	17.3325
2.596	17.2244
2.5947	17.2023
2.5934	17.3119
2.5921	17.4902
2.5908	17.6523
2.5895	17.7562
2.5882	17.7891
2.5869	17.7687
2.5856	17.7359
2.5843	17.729
2.583	17.7809
2.5817	17.8699
2.5805	17.9524
2.5792	18.0122
2.5779	18.0429
2.5766	18.051
2.5753	18.0417
2.5741	18.0256
2.5728	18.0333
2.5715	18.0716
2.5702	18.1214
2.569	18.1747
2.5677	18.2163
2.5664	18.2273
2.5651	18.2054
2.5639	18.1754
2.5626	18.1709
2.5613	18.2056
2.5601	18.2756
2.5588	18.3628
2.5575	18.4388
2.5563	18.4791
2.555	18.4786
2.5538	18.4558
2.5525	18.4355
2.5513	18.4363
2.55	18.4563
2.5487	18.4816
2.5475	18.5039
2.5462	18.5154
2.545	18.5113
2.5437	18.5017
2.5425	18.5049
2.5413	18.5264
2.54	18.5546
2.5388	18.5848
2.5375	18.6119
2.5363	18.629
2.535	18.635
2.5338	18.6365
2.5326	18.642
2.5313	18.6491
2.5301	18.6484
2.5289	18.6422
2.5276	18.631
2.5264	18.6187
2.5252	18.6135
2.5239	18.6152
2.5227	18.623
2.5215	18.632
2.5202	18.63
2.519	18.6182
2.5178	18.6041
2.5166	18.5965
2.5154	18.5991
2.5141	18.6078
2.5129	18.6187
2.5117	18.626
2.5105	18.618
2.5093	18.5975
2.5081	18.5733
2.5068	18.5525
2.5056	18.536
2.5044	18.5257
2.5032	18.5228
2.502	18.5231
2.5008	18.5236
2.4996	18.5269
2.4984	18.5367
2.4972	18.5539
2.496	18.5737
2.4948	18.592
2.4936	18.6028
2.4924	18.6016
2.4912	18.5917
2.49	18.5757
2.4888	18.5594
2.4876	18.5551
2.4864	18.5654
2.4852	18.5848
2.484	18.6056
2.4828	18.6224
2.4816	18.6333
2.4805	18.6345
2.4793	18.6298
2.4781	18.6305
2.4769	18.6381
2.4757	18.6482
2.4745	18.6559
2.4734	18.6597
2.4722	18.657
2.471	18.647
2.4698	18.6317
2.4686	18.6169
2.4675	18.6054
2.4663	18.5991
2.4651	18.5984
2.464	18.6023
2.4628	18.6087
2.4616	18.6157
2.4604	18.6192
2.4593	18.619
2.4581	18.6174
2.4569	18.6119
2.4558	18.602
2.4546	18.5927
2.4535	18.5877
2.4523	18.5862
2.4511	18.5848
2.45	18.585
2.4488	18.5879
2.4477	18.5874
2.4465	18.5827
2.4454	18.5788
2.4442	18.5785
2.4431	18.5776
2.4419	18.5737
2.4408	18.5733
2.4396	18.5802
2.4385	18.5931
2.4373	18.6097
2.4362	18.6317
2.435	18.6597
2.4339	18.6867
2.4327	18.7108
2.4316	18.7369
2.4305	18.7681
2.4293	18.8039
2.4282	18.8427
2.427	18.8872
2.4259	18.9348
2.4248	18.9776
2.4236	19.0133
2.4225	19.0441
2.4214	19.0748
2.4202	19.1064
2.4191	19.1416
2.418	19.1827
2.4169	19.2267
2.4157	19.2714
2.4146	19.3174
2.4135	19.365
2.4124	19.415
2.4112	19.4636
2.4101	19.51
2.409	19.5509
2.4079	19.5832
2.4068	19.6055
2.4056	19.6167
2.4045	19.6201
2.4034	19.6215
2.4023	19.6241
2.4012	19.6316
2.4001	19.6475
2.399	19.6696
2.3979	19.689
2.3967	19.6971
2.3956	19.6938
2.3945	19.6775
2.3934	19.6502
2.3923	19.6239
2.3912	19.609
2.3901	19.6078
2.389	19.6141
2.3879	19.6188
2.3868	19.6153
2.3857	19.5932
2.3846	19.555
2.3835	19.5124
2.3824	19.476
2.3813	19.4535
2.3802	19.4457
2.3791	19.4445
2.3781	19.444
2.377	19.4375
2.3759	19.4196
2.3748	19.3899
2.3737	19.3542
2.3726	19.3224
2.3715	19.2983
2.3704	19.2772
2.3694	19.2595
2.3683	19.2447
2.3672	19.2284
2.3661	19.2098
2.365	19.1882
2.364	19.1688
2.3629	19.1518
2.3618	19.127
2.3607	19.0936
2.3597	19.0571
2.3586	19.0236
2.3575	18.998
2.3564	18.9829
2.3554	18.9814
2.3543	18.9882
2.3532	18.9942
2.3522	18.9965
2.3511	18.9956
2.35	18.9932
2.349	18.9932
2.3479	18.9992
2.3468	19.0121
2.3458	19.032
2.3447	19.0611
2.3436	19.1021
2.3426	19.1552
2.3415	19.2186
2.3405	19.2853
2.3394	19.3516
2.3384	19.4107
2.3373	19.4621
2.3363	19.5071
2.3352	19.5499
2.3342	19.5982
2.3331	19.6557
2.3321	19.7212
2.331	19.7981
2.33	19.8849
2.3289	19.9773
2.3279	20.0651
2.3268	20.1421
2.3258	20.2096
2.3247	20.2713
2.3237	20.3325
2.3226	20.3991
2.3216	20.4735
2.3206	20.5488
2.3195	20.6154
2.3185	20.6682
2.3175	20.7118
2.3164	20.7551
2.3154	20.8036
2.3144	20.8594
2.3133	20.9235
2.3123	20.9893
2.3113	21.0511
2.3102	21.1064
2.3092	21.156
2.3082	21.2023
2.3071	21.2465
2.3061	21.2865
2.3051	21.3224
2.3041	21.3525
2.303	21.3776
2.302	21.3992
2.301	21.419
2.3	21.441
2.299	21.4671
2.2979	21.4932
2.2969	21.5152
2.2959	21.533
2.2949	21.5451
2.2939	21.5564
2.2929	21.5712
2.2918	21.5894
2.2908	21.6107
2.2898	21.6311
2.2888	21.6444
2.2878	21.6507
2.2868	21.6473
2.2858	21.6406
2.2848	21.6341
2.2838	21.6291
2.2828	21.6284
2.2818	21.6334
2.2808	21.6399
2.2798	21.6437
2.2787	21.6382
2.2777	21.619
2.2767	21.5932
2.2757	21.5647
2.2747	21.5365
2.2738	21.5111
2.2728	21.4855
2.2718	21.4573
2.2708	21.4243
2.2698	21.3839
2.2688	21.3432
2.2678	21.3042
2.2668	21.2652
2.2658	21.2271
2.2648	21.1891
2.2638	21.153
2.2628	21.1248
2.2618	21.1029
2.2609	21.087
2.2599	21.0772
2.2589	21.0725
2.2579	21.0725
2.2569	21.0702
2.2559	21.0669
2.255	21.0682
2.254	21.0707
2.253	21.0724
2.252	21.078
2.251	21.0886
2.2501	21.0996
2.2491	21.1059
2.2481	21.1114
2.2471	21.1221
2.2462	21.1371
2.2452	21.1577
2.2442	21.1852
2.2433	21.2104
2.2423	21.2259
2.2413	21.2276
2.2403	21.2173
2.2394	21.2065
2.2384	21.2047
2.2374	21.2149
2.2365	21.2322
2.2355	21.2405
2.2345	21.2327
2.2336	21.2065
2.2326	21.168
2.2317	21.126
2.2307	21.0862
2.2297	21.0508
2.2288	21.0128
2.2278	20.9615
2.2269	20.9022
2.2259	20.8496
2.225	20.8113
2.224	20.786
2.2231	20.7641
2.2221	20.7429
2.2211	20.7142
2.2202	20.6687
2.2192	20.6089
2.2183	20.5462
2.2173	20.4826
2.2164	20.4154
2.2155	20.3438
2.2145	20.278
2.2136	20.2248
2.2126	20.1813
2.2117	20.1491
2.2107	20.1349
2.2098	20.1323
2.2088	20.1302
2.2079	20.1261
2.207	20.1182
2.206	20.1076
2.2051	20.0969
2.2041	20.0909
2.2032	20.0976
2.2023	20.1103
2.2013	20.1249
2.2004	20.1428
2.1995	20.1649
2.1985	20.1991
2.1976	20.2539
2.1967	20.3289
2.1957	20.423
2.1948	20.5251
2.1939	20.6268
2.193	20.7211
2.192	20.8075
2.1911	20.8946
2.1902	20.9869
2.1893	21.0879
2.1883	21.1963
2.1874	21.3059
2.1865	21.4108
2.1856	21.5039
2.1846	21.5858
2.1837	21.6666
2.1828	21.7557
2.1819	21.8555
2.181	21.9604
2.18	22.0623
2.1791	22.1553
2.1782	22.2361
2.1773	22.305
2.1764	22.3737
2.1755	22.4491
2.1746	22.5211
2.1736	22.582
2.1727	22.6282
2.1718	22.6653
2.1709	22.7031
2.17	22.7433
2.1691	22.7919
2.1682	22.8476
2.1673	22.9001
2.1664	22.9467
2.1655	22.9881
2.1646	23.0309
2.1637	23.0757
2.1628	23.1108
2.1619	23.1388
2.161	23.1608
2.1601	23.1761
2.1592	23.1833
2.1583	23.1816
2.1574	23.1806
2.1565	23.1793
2.1556	23.1746
2.1547	23.1802
2.1538	23.1972
2.1529	23.2209
2.152	23.241
2.1511	23.2563
2.1502	23.2721
2.1493	23.2826
2.1484	23.2852
2.1475	23.2903
2.1466	23.2993
2.1458	23.3094
2.1449	23.3192
2.144	23.3318
2.1431	23.3448
2.1422	23.3441
2.1413	23.322
2.1404	23.2886
2.1396	23.2529
2.1387	23.2221
2.1378	23.2053
2.1369	23.208
2.136	23.2237
2.1352	23.2395
2.1343	23.2496
2.1334	23.2568
2.1325	23.2589
2.1316	23.2579
2.1308	23.2594
2.1299	23.2623
2.129	23.2596
2.1281	23.2488
2.1273	23.2367
2.1264	23.2299
2.1255	23.2309
2.1247	23.2417
2.1238	23.2623
2.1229	23.29
2.122	23.3164
2.1212	23.3297
2.1203	23.3302
2.1194	23.3266
2.1186	23.3247
2.1177	23.323
2.1168	23.3233
2.116	23.328
2.1151	23.3326
2.1143	23.324
2.1134	23.3011
2.1125	23.274
2.1117	23.2551
2.1108	23.2493
2.11	23.2601
2.1091	23.2865
2.1082	23.324
2.1074	23.3615
2.1065	23.3836
2.1057	23.3862
2.1048	23.3798
2.104	23.3687
2.1031	23.3556
2.1023	23.3489
2.1014	23.3575
2.1005	23.3725
2.0997	23.3857
2.0988	23.4022
2.098	23.4264
2.0971	23.4513
2.0963	23.4714
2.0955	23.4893
2.0946	23.4993
2.0938	23.4895
2.0929	23.4745
2.0921	23.4754
2.0912	23.4905
2.0904	23.5156
2.0895	23.5451
2.0887	23.5776
2.0879	23.6022
2.087	23.6113
2.0862	23.6173
2.0853	23.6357
2.0845	23.6352
2.0837	23.6283
2.0828	23.6309
2.082	23.5738
2.0812	23.6351
2.0803	23.6879
2.0795	23.652
2.076	23.6145
2.072	23.6077
2.068	23.7128
2.064	23.7573
2.06	23.6272
2.056	23.7208
2.052	23.7169
2.048	23.6605
2.044	23.4966
2.04	23.4969
2.036	23.5425
2.032	23.5633
2.028	23.481
2.024	23.4516
2.02	23.4319
2.016	23.4975
2.012	23.2978
2.008	23.2237
2.004	23.165
2	23.0856
1.996	22.9893
1.992	23.0936
1.988	23.0727
1.984	23.0513
1.98	22.8631
1.976	22.7862
1.972	22.7759
1.968	22.9173
1.964	22.9376
1.96	22.9425
1.956	22.8986
1.952	22.8733
1.948	22.7183
1.944	22.6929
1.94	22.576
1.936	22.5168
1.932	22.6141
1.928	22.5628
1.924	22.4887
1.92	22.3301
1.916	22.3243
1.912	22.3118
1.908	22.3564
1.904	22.3913
1.9	22.4403
1.896	22.6193
1.892	22.7996
1.888	23.0838
1.884	23.2237
1.88	23.4092
1.876	23.596
1.872	23.8259
1.868	23.8289
1.864	24.0562
1.86	24.1895
1.856	24.0977
1.852	24.228
1.848	24.2321
1.844	24.1969
1.84	24.2766
1.836	24.2189
1.832	24.3312
1.828	24.3186
1.824	24.1616
1.82	24.1261
1.816	24.1652
1.812	24.2293
1.808	24.1866
1.804	24.1439
1.8	24.0351
1.796	23.9956
1.792	24.0202
1.788	23.981
1.784	24.1142
1.78	24.1773
1.776	24.0426
1.772	24.1343
1.768	24.1296
1.764	24.1223
1.76	24.1726
1.756	24.1726
1.752	24.0696
1.748	24.0217
1.744	23.9537
1.74	23.8749
1.736	23.6514
1.732	23.615
1.728	23.5811
1.724	23.6828
1.72	23.5951
1.716	23.6444
1.712	23.6556
1.708	23.5539
1.704	23.5479
1.7	23.5784
1.696	23.663
1.692	23.4618
1.688	23.4816
1.684	23.5164
1.68	23.4692
1.676	23.3285
1.672	23.3516
1.668	23.2977
1.664	23.2751
1.66	23.3781
1.656	23.2604
1.652	23.3028
1.648	23.2959
1.644	23.1967
1.64	23.1945
1.636	23.0577
1.632	22.9969
1.628	22.9506
1.624	22.9188
1.62	22.931
1.616	22.9196
1.612	22.8826
1.608	22.7804
1.604	22.7408
1.6	22.6689
1.596	22.5257
1.592	22.4874
1.588	22.4609
1.584	22.5533
1.58	22.4343
1.576	22.4141
1.572	22.3477
1.568	22.3343
1.564	22.2349
1.56	22.0979
1.556	22.1117
1.552	22.1637
1.548	22.073
1.544	22.0725
1.54	22.0399
1.536	21.9809
1.532	22.0208
1.528	21.9086
1.524	21.9011
1.52	21.8033
1.516	21.641
1.512	21.6206
1.508	21.5866
1.504	21.5323
1.5	21.4563
1.496	21.3576
1.492	21.2724
1.488	21.3126
1.484	21.135
1.48	21.1538
1.476	21.0941
1.472	20.968
1.468	20.9218
1.464	20.9537
1.46	20.8959
1.456	20.8355
1.452	20.8007
1.448	20.7922
1.444	20.6736
1.44	20.6212
1.436	20.533
1.432	20.4289
1.428	20.362
1.424	20.0792
1.42	19.8627
1.416	19.8041
1.412	19.3537
1.408	19.1624
1.404	18.9433
1.4	18.9477
1.396	19.0534
1.392	19.3415
1.388	19.5144
1.384	19.5586
1.38	19.6519
1.376	19.7314
1.372	19.7612
1.368	19.7984
1.364	19.6477
1.36	19.4891
1.356	19.5662
1.352	19.4798
1.348	19.4703
1.344	19.4407
1.34	19.3641
1.336	19.3649
1.332	19.194
1.328	19.1839
1.324	19.0781
1.32	18.9557
1.316	18.9056
1.312	18.9391
1.308	18.8501
1.304	18.772
1.3	18.7663
1.296	18.7046
1.292	18.6706
1.288	18.552
1.284	18.4147
1.28	18.261
1.276	18.1863
1.272	18.1609
1.268	17.9783
1.264	17.8981
1.26	17.8747
1.256	17.8064
1.252	17.7768
1.248	17.7216
1.244	17.6318
1.24	17.6422
1.236	17.5703
1.232	17.469
1.228	17.4357
1.224	17.2784
1.22	17.1801
1.216	17.181
1.212	17.156
1.208	16.9238
1.204	16.9248
1.2	16.9017
1.196	16.872
1.192	16.7778
1.188	16.6938
1.184	16.6405
1.18	16.5808
1.176	16.5021
1.172	16.4775
1.168	16.4489
1.164	16.3997
1.16	16.2761
1.156	16.2296
1.152	16.1721
1.148	16.2796
1.144	16.2025
1.14	16.2384
1.136	16.0895
1.132	16.0059
1.128	15.976
1.124	15.9726
1.12	15.7647
1.116	15.8339
1.112	15.744
1.108	15.6229
1.104	15.7632
1.1	15.7722
1.096	15.7135
1.092	15.7813
1.088	15.7496
1.084	15.653
1.08	15.6381
1.076	15.5949
1.072	15.5936
1.068	15.6136
1.064	15.7
1.06	15.7527
1.056	15.754
1.052	15.766
1.048	15.7495
1.044	15.7644
1.04	15.6855
1.036	15.6821
1.032	15.6282
1.028	15.713
1.024	15.6355
1.02	15.6237
1.016	15.6201
1.012	15.6238
1.008	15.539
1.004	15.7058
1	15.7201
0.996	15.6048
0.992	15.8243
0.988	15.6973
0.984	15.6409
0.98	15.6417
0.976	15.5559
0.972	15.6324
0.968	15.5844
0.964	15.5521
0.96	15.5671
0.956	15.5505
0.952	15.4954
0.948	15.4056
0.944	15.4818
0.94	15.4127
0.936	15.4282
0.932	15.457
0.928	15.3392
0.924	15.4457
0.92	15.3483
0.916	15.3522
0.912	15.4365
0.908	15.3258
0.904	15.3174
0.9	15.3263
0.896	15.3974
0.892	15.3308
0.888	15.5317
0.884	15.6385
0.88	15.5878
0.876	15.595
0.872	15.628
0.868	15.6204
0.864	15.6733
0.86	15.7815
0.856	15.7593
0.852	15.793
0.848	15.9354
0.844	16.0693
0.84	16.0197
0.836	15.9117
0.832	16.1207
0.828	16.2352
0.824	16.3667
0.82	16.1831
0.816	16.2437
0.812	16.2566
0.808	16.3694
0.804	16.4753
0.8	16.5234
0.799	16.3824
0.798	16.3824
0.797	16.4213
0.796	16.4391
0.795	16.3205
0.794	16.2494
0.793	16.1526
0.792	16.2035
0.791	16.1305
0.79	16.229
0.789	16.2366
0.788	16.4142
0.787	16.2746
0.786	16.3135
0.785	16.2532
0.784	16.2313
0.783	16.2351
0.782	16.1432
0.781	16.0716
0.78	16.0808
0.779	16.1414
0.778	16.1303
0.777	16.1321
0.776	16.0131
0.775	16.0607
0.774	16.0368
0.773	16.035
0.772	15.9798
0.771	16.0038
0.77	16.002
0.769	15.9141
0.768	15.9305
0.767	15.8702
0.766	15.8757
0.765	15.8263
0.764	15.8078
0.763	15.8241
0.762	15.9708
0.761	15.9066
0.76	15.866
0.759	15.8198
0.758	15.7519
0.757	15.7059
0.756	15.765
0.755	15.844
0.754	15.8773
0.753	15.7544
0.752	15.7782
0.751	15.7837
0.75	15.6346
0.749	15.7265
0.748	15.6659
0.747	15.7469
0.746	15.8204
0.745	15.8077
0.744	15.5946
0.743	15.548
0.742	15.463
0.741	15.5426
0.74	15.6785
0.739	15.738
0.738	15.6922
0.737	15.377
0.736	15.4622
0.735	15.7049
0.734	15.6347
0.733	15.6142
0.732	15.7475
0.731	15.5166
0.73	15.572
0.729	15.532
0.728	15.6682
0.727	15.5726
0.726	15.5633
0.725	15.5562
0.724	15.499
0.723	15.5647
0.722	15.6793
0.721	15.6298
0.72	15.5358
0.719	15.5606
0.718	15.6016
0.717	15.6361
0.716	15.6458
0.715	15.6569
0.714	15.6251
0.713	15.5482
0.712	15.5071
0.711	15.4604
0.71	15.525
0.709	15.6257
0.708	15.4671
0.707	15.5511
0.706	15.6073
0.705	15.6004
0.704	15.4948
0.703	15.4797
0.702	15.4756
0.701	15.5406
0.7	15.4798
0.699	15.5612
0.698	15.4207
0.697	15.5171
0.696	15.5357
0.695	15.5512
0.694	15.5439
0.693	15.5269
0.692	15.4522
0.691	15.4974
0.69	15.5854
0.689	15.6447
0.688	15.7061
0.687	15.6467
0.686	15.6525
0.685	15.6793
0.684	15.5968
0.683	15.5911
0.682	15.5568
0.681	15.5187
0.68	15.5969
0.679	15.614
0.678	15.5601
0.677	15.6044
0.676	15.5929
0.675	15.6198
0.674	15.735
0.673	15.6371
0.672	15.7024
0.671	15.6525
0.67	15.7024
0.669	15.7024
0.668	15.7606
0.667	15.8168
0.666	15.7992
0.665	15.7315
0.664	15.7816
0.663	15.7432
0.662	15.8646
0.661	15.8084
0.66	15.7315
0.659	15.7816
0.658	15.7934
0.657	15.7758
0.656	15.7257
0.655	15.7315
0.654	15.7432
0.653	15.7198
0.652	15.785
0.651	15.8175
0.65	15.7176
0.649	15.8176
0.648	15.841
0.647	15.8645
0.646	15.8704
0.645	15.8912
0.644	15.9415
0.643	15.9474
0.642	16.0424
0.641	16.0038
0.64	15.9979
0.639	15.8971
0.638	15.8794
0.637	15.8853
0.636	15.903
0.635	15.9325
0.634	15.8
0.633	15.8175
0.632	15.8941
0.631	15.9474
0.63	15.98
0.629	16.0484
0.628	15.9832
0.627	16.0184
0.626	15.9919
0.625	16.0749
0.624	15.9888
0.623	16.1421
0.622	16.0653
0.621	16.0244
0.62	16.0773
0.619	16.1277
0.618	16.1134
0.617	16.1134
0.616	16.123
0.615	16.1024
0.614	16.1532
0.613	16.2245
0.612	16.198
0.611	16.2999
0.61	16.2038
0.609	16.147
0.608	16.251
0.607	16.2714
0.606	16.2206
0.605	16.2122
0.604	16.3141
0.603	16.3185
0.602	16.2384
0.601	16.1826
0.6	16.341
0.599	16.2902
0.598	16.285
0.597	16.2446
0.596	16.2912
0.595	16.1795
0.594	16.2355
0.593	16.2996
0.592	16.3172
0.591	16.1918
0.59	16.2534
0.589	16.1646
0.588	16.2569
0.587	16.2631
0.586	16.2778
0.585	16.2384
0.584	16.2384
0.583	16.2015
0.582	16.254
0.581	16.4427
0.58	16.4185
0.579	16.3721
0.578	16.431
0.577	16.3452
0.576	16.2996
0.575	16.3436
0.574	16.2834
0.573	16.3161
0.572	16.3708
0.571	16.2837
0.57	16.4338
0.569	16.3891
0.568	16.3708
0.567	16.3831
0.566	16.3812
0.565	16.3161
0.564	16.3609
0.563	16.3222
0.562	16.3406
0.561	16.3323
0.56	16.1747
0.559	16.0883
0.558	16.0394
0.557	16.0286
0.556	16.0132
0.555	16.0423
0.554	15.984
0.553	15.9025
0.552	15.9372
0.551	15.8314
0.55	15.8335
0.549	15.8219
0.548	15.8128
0.547	15.83
0.546	15.7538
0.545	15.7827
0.544	15.8292
0.543	15.8292
0.542	15.6025
0.541	15.6179
0.54	15.7292
0.539	15.6776
0.538	15.6683
0.537	15.602
0.536	15.5518
0.535	15.581
0.534	15.6274
0.533	15.5075
0.532	15.3789
0.531	15.2691
0.53	15.225
0.529	15.1921
0.528	15.1651
0.527	15.0988
0.526	15.016
0.525	14.9936
0.524	15.0381
0.523	14.8786
0.522	14.7957
0.521	14.7349
0.52	14.7517
0.519	14.6862
0.518	14.6239
0.517	14.6342
0.516	14.5729
0.515	14.5182
0.514	14.4961
0.513	14.4627
0.512	14.4293
0.511	14.3238
0.51	14.1902
0.509	14.2056
0.508	14.2412
0.507	14.1026
0.506	14.012
0.505	13.8307
0.504	13.6482
0.503	13.6674
0.502	13.687
0.501	13.5998
0.5	13.5416
0.499	13.4817
0.498	13.3453
0.497	13.3422
0.496	13.3206
0.495	13.2065
0.494	13.1425
0.493	13.0784
0.492	13.0393
0.491	13.0868
0.49	12.8913
0.489	12.7968
0.488	12.701
0.487	12.7277
0.486	12.8327
0.485	12.6741
0.484	12.5873
0.483	12.5001
0.482	12.4609
0.481	12.3889
0.48	12.2912
0.479	12.3713
0.478	12.3258
0.477	12.2935
0.476	12.1391
0.475	12.1058
0.474	12.0681
0.473	12.0722
0.472	12.1251
0.471	12.1376
0.47	12.0004
0.469	11.9139
0.468	11.896
0.467	11.7177
0.466	11.7655
0.465	11.749
0.464	11.6225
0.463	11.5953
0.462	11.703
0.461	11.5545
0.46	11.5321
0.459	11.375
0.458	11.4053
0.457	11.4491
0.456	11.4097
0.455	11.3681
0.454	11.3303
0.453	11.2313
0.452	11.2313
0.451	11.1042
0.45	10.9864
0.449	10.9926
0.448	11.0189
0.447	11.0022
0.446	10.7733
0.445	10.7465
0.444	10.7951
0.443	10.6028
0.442	10.6239
0.441	10.5742
0.44	10.4969
0.439	10.4925
0.438	10.3951
0.437	10.3697
0.436	10.2135
0.435	9.9687
0.434	9.8596
0.433	9.8917
0.432	9.6657
0.431	9.7002
0.43	9.5387
0.429	9.4656
0.428	9.4281
0.427	9.333
0.426	9.213
0.425	9.1921
0.424	9.152
0.423	8.8455
0.422	8.7074
0.421	8.671
0.42	8.7422
0.419	8.4548
0.418	8.3935
0.417	8.3632
0.416	8.2354
0.415	8.226
0.414	8.2216
0.413	8.1198
0.412	7.9814
0.411	7.9934
0.41	7.9432
0.409	7.9843
0.408	7.8055
0.407	7.7456
0.406	7.7714
0.405	7.559
0.404	7.4952
0.403	7.5361
0.402	7.4645
0.401	7.4261
0.4	7.245
