Name: Prehnite Ca_2Al_2Si_3O_10(OH)_2
Type: Mineral
Class: Silicates
Subclass: Phyllosilicates
Particle Size: 45-125um
Sample No.: PS-21A
Owner: JPL
Wavelength range: IR
Origin: USA, Virginia, Centerville
Collected by Burminco
Description: 





Measurement: Hemispherical reflectance
First Column: X
Second Column: Y
X Units:  Wavelength (micrometers)
Y Units:  Reflectance (percent)
First X Value: 15.3853
Last X Value: 2.00032
Number of X Values: 2256
Additional information: ps21aa.txt
 
15.3853	3.31471
15.3397	3.74782
15.2945	3.65176
15.2495	3.4253
15.2048	3.46251
15.1603	3.47687
15.1161	3.43343
15.0722	3.32026
15.0285	3.32831
14.9851	3.30637
14.9419	3.25973
14.8989	3.43111
14.8563	3.65525
14.8138	3.52259
14.7716	3.55577
14.7296	3.86015
14.6879	3.93947
14.6464	4.10148
14.6052	4.18195
14.5641	4.18949
14.5233	4.44449
14.4828	4.5281
14.4424	4.54588
14.4023	4.90449
14.3624	4.91723
14.3227	4.98959
14.2833	4.9911
14.244	4.81046
14.205	5.06524
14.1662	5.27124
14.1276	5.32891
14.0892	5.55815
14.051	5.74807
14.0131	5.85636
13.9753	5.8997
13.9377	5.99694
13.9004	6.2496
13.8632	6.43309
13.8262	6.57146
13.7895	6.70505
13.7529	6.94497
13.7165	7.39403
13.6803	7.88892
13.6443	8.29699
13.6085	8.41509
13.5729	8.90875
13.5374	9.5889
13.5022	10.1448
13.4671	10.5441
13.4322	10.6267
13.3975	10.6171
13.363	10.5884
13.3286	10.5076
13.2944	10.6056
13.2604	11.0666
13.2266	11.6594
13.193	12.0256
13.1595	12.3106
13.1262	12.6272
13.093	12.6572
13.06	12.2985
13.0272	11.7776
12.9946	11.1034
12.9621	9.98242
12.9298	8.62522
12.8976	7.24294
12.8656	5.67397
12.8337	4.39603
12.8021	3.69371
12.7705	3.24985
12.7391	3.02549
12.7079	3.12576
12.6769	3.14994
12.6459	3.13969
12.6152	3.28452
12.5845	3.48093
12.5541	3.56466
12.5238	3.71143
12.4936	3.99524
12.4635	4.34456
12.4337	4.49508
12.4039	4.79722
12.3743	5.13704
12.3448	5.35832
12.3155	5.53061
12.2863	5.65113
12.2573	5.53983
12.2284	5.49838
12.1996	5.58799
12.171	5.52874
12.1425	5.26142
12.1141	4.87621
12.0859	4.39074
12.0578	4.01722
12.0298	3.72944
12.0019	3.5398
11.9742	3.56362
11.9466	3.72105
11.9192	3.90262
11.8918	3.9064
11.8646	3.87225
11.8375	4.04639
11.8106	4.15621
11.7837	4.15464
11.757	4.10427
11.7304	4.21467
11.7039	4.53453
11.6776	4.79944
11.6513	5.05749
11.6252	5.32207
11.5992	5.37835
11.5733	5.45774
11.5475	5.46837
11.5219	5.35946
11.4963	5.25886
11.4709	5.13408
11.4455	5.02523
11.4203	4.8448
11.3952	4.73754
11.3702	4.66841
11.3454	4.58118
11.3206	4.72103
11.2959	4.79775
11.2714	4.86996
11.2469	5.14938
11.2226	5.3558
11.1983	5.48254
11.1742	5.65809
11.1502	5.86447
11.1263	6.13268
11.1024	6.43664
11.0787	6.67102
11.0551	6.93248
11.0316	7.2258
11.0081	7.60143
10.9848	7.98159
10.9616	8.31398
10.9385	8.77681
10.9154	9.31067
10.8925	10.0184
10.8697	10.7383
10.8469	11.2907
10.8243	11.9401
10.8017	12.6357
10.7793	13.1183
10.7569	13.5306
10.7346	13.9347
10.7125	14.2481
10.6904	14.3865
10.6684	14.2729
10.6465	13.8823
10.6247	13.3222
10.6029	12.6359
10.5813	11.9093
10.5597	11.2895
10.5383	10.8647
10.5169	10.4509
10.4956	10.1959
10.4744	10.0576
10.4533	10.0617
10.4323	10.0843
10.4113	10.0379
10.3904	10.0087
10.3697	10.1387
10.349	10.4425
10.3284	10.7974
10.3078	11.2455
10.2874	11.7798
10.267	12.6232
10.2467	13.6986
10.2265	14.9336
10.2064	16.4325
10.1863	18.0838
10.1663	19.489
10.1464	20.7478
10.1266	21.7422
10.1069	22.5149
10.0872	23.2681
10.0676	23.7228
10.0481	24.0792
10.0287	24.4558
10.0093	24.9748
9.99005	25.5568
9.97084	26.1895
9.95169	26.93
9.93263	27.5284
9.91364	28.0095
9.89472	28.5263
9.87587	28.8045
9.8571	28.9646
9.83839	29.1176
9.81976	29.2953
9.80119	29.4531
9.78271	29.5669
9.76428	29.5623
9.74592	29.287
9.72764	28.8298
9.70943	28.2463
9.69128	27.3566
9.6732	25.8286
9.65518	23.6159
9.63724	21.1247
9.61935	18.5821
9.60155	16.3499
9.5838	14.7508
9.56611	13.6183
9.5485	12.4716
9.53094	11.2181
9.51345	9.99099
9.49604	8.93784
9.47867	8.20334
9.46137	7.97935
9.44414	7.98529
9.42697	8.23589
9.40986	9.08624
9.39281	10.4095
9.37583	12.1926
9.35891	14.5394
9.34204	17.1718
9.32524	19.7418
9.3085	22.06
9.29182	23.6751
9.27519	24.4958
9.25863	25.0878
9.24213	25.5839
9.22568	26.0813
9.2093	26.3795
9.19297	26.0911
9.17669	25.3847
9.16048	24.455
9.14433	23.4131
9.12823	22.4336
9.11218	21.6565
9.0962	21.0486
9.08027	20.5852
9.06439	20.1702
9.04858	19.7344
9.03281	19.2513
9.0171	18.7207
9.00145	18.1006
8.98585	17.442
8.9703	16.6917
8.9548	15.7996
8.93937	14.7479
8.92398	13.6787
8.90865	12.6042
8.89337	11.6516
8.87814	10.8847
8.86296	10.0933
8.84784	9.23503
8.83277	8.40502
8.81774	7.67597
8.80277	7.06921
8.78786	6.4125
8.77298	5.6151
8.75816	4.91154
8.7434	4.37031
8.72868	3.8575
8.714	3.25913
8.69938	2.60368
8.68481	2.18761
8.67029	1.9224
8.65581	1.51211
8.64139	1.13804
8.62701	0.881886
8.61268	0.673827
8.5984	0.539306
8.58416	0.566397
8.56997	0.413363
8.55583	0.340489
8.54174	0.372846
8.52769	0.36815
8.51368	0.288285
8.49973	0.226539
8.48582	0.233175
8.47195	0.240016
8.45813	0.265056
8.44436	0.219106
8.43062	0.19344
8.41693	0.201392
8.4033	0.157023
8.3897	0.122832
8.37614	0.109833
8.36264	0.0833822
8.34917	-0.0337083
8.33574	0.0152395
8.32236	0.199929
8.30903	0.335636
8.29573	0.314706
8.28248	0.251622
8.26927	0.326605
8.2561	0.455896
8.24298	0.400743
8.2299	0.353298
8.21685	0.374498
8.20385	0.473821
8.19089	0.567058
8.17797	0.538678
8.16509	0.473258
8.15225	0.431795
8.13946	0.505725
8.1267	0.719397
8.11398	0.68533
8.10131	0.625705
8.08867	0.783831
8.07606	0.85337
8.0635	0.810603
8.05099	0.848165
8.0385	0.846969
8.02606	0.937096
8.01366	1.04581
8.00129	1.05121
7.98896	1.10425
7.97667	1.14598
7.96442	1.15921
7.9522	1.22115
7.94002	1.31143
7.92788	1.31044
7.91578	1.39709
7.90371	1.51038
7.89168	1.55897
7.87969	1.53898
7.86773	1.52954
7.85581	1.57551
7.84392	1.70377
7.83207	1.79275
7.82026	1.85917
7.80849	1.94492
7.79674	1.93927
7.78503	1.97789
7.77337	2.11535
7.76173	2.2206
7.75012	2.30691
7.73856	2.42861
7.72703	2.41597
7.71553	2.43528
7.70406	2.58776
7.69263	2.72473
7.68123	2.76966
7.66987	2.81713
7.65855	2.93603
7.64725	3.01462
7.63598	3.02603
7.62475	3.17976
7.61356	3.39726
7.60239	3.53221
7.59126	3.55897
7.58017	3.595
7.5691	3.66906
7.55806	3.80321
7.54707	3.90832
7.5361	4.04486
7.52516	4.23603
7.51425	4.32562
7.50338	4.32772
7.49253	4.34337
7.48172	4.43892
7.47094	4.58157
7.46019	4.70416
7.44947	4.75755
7.43879	4.80328
7.42813	4.84565
7.4175	4.84268
7.4069	4.84461
7.39634	4.90047
7.3858	4.92103
7.37529	4.90697
7.36482	5.05542
7.35437	5.22039
7.34396	5.20127
7.33357	5.11635
7.32321	5.12525
7.31288	5.13307
7.30258	5.13675
7.29231	5.20114
7.28207	5.32346
7.27185	5.33531
7.26167	5.30571
7.25152	5.33729
7.24139	5.41001
7.23129	5.48261
7.22122	5.47263
7.21117	5.51659
7.20116	5.61441
7.19117	5.6104
7.18121	5.5257
7.17128	5.57622
7.16137	5.59304
7.1515	5.67
7.14164	5.73153
7.13182	5.7088
7.12203	5.71478
7.11225	5.70615
7.10251	5.64554
7.0928	5.59068
7.08311	5.60304
7.07344	5.5197
7.06381	5.48373
7.0542	5.63417
7.04461	5.71891
7.03506	5.54979
7.02552	5.41595
7.01601	5.39531
7.00653	5.37742
6.99708	5.37024
6.98765	5.36809
6.97824	5.34288
6.96886	5.31633
6.95951	5.3333
6.95018	5.20952
6.94087	5.11255
6.9316	5.10362
6.92234	5.13727
6.91311	5.11112
6.90391	4.9994
6.89473	4.93614
6.88557	4.92214
6.87644	4.94106
6.86733	5.10968
6.85824	5.08002
6.84918	4.91783
6.84015	4.94456
6.83114	5.04434
6.82215	5.11964
6.81319	5.14521
6.80424	5.10583
6.79532	5.10137
6.78643	5.12098
6.77756	5.16317
6.76871	5.1826
6.75989	5.18193
6.75109	5.21912
6.74231	5.25391
6.73355	5.27952
6.72482	5.35975
6.71611	5.42887
6.70742	5.35778
6.69875	5.27355
6.69011	5.33495
6.68149	5.35862
6.67289	5.27836
6.66431	5.2155
6.65576	5.21586
6.64722	5.32762
6.63871	5.4771
6.63022	5.36995
6.62175	5.20068
6.61331	5.17666
6.60488	5.08587
6.59648	5.0606
6.5881	5.08786
6.57974	5.14915
6.5714	5.24113
6.56308	5.1955
6.55478	5.12583
6.54651	5.06984
6.53825	4.99483
6.53001	4.94548
6.5218	4.96844
6.51361	4.87761
6.50544	4.92131
6.49729	5.11346
6.48915	5.09558
6.48104	5.01133
6.47295	4.94474
6.46488	4.76998
6.45683	4.68894
6.4488	4.71724
6.44079	4.71826
6.4328	4.76401
6.42482	4.83796
6.41687	4.97537
6.40894	4.97106
6.40103	4.87421
6.39314	4.92289
6.38526	5.01755
6.37741	5.15666
6.36957	5.2855
6.36176	5.41827
6.35396	5.63181
6.34618	5.88656
6.33843	5.95029
6.33069	6.00347
6.32297	6.17101
6.31527	6.35915
6.30758	6.48006
6.29992	6.63322
6.29227	6.74831
6.28465	6.89664
6.27704	7.09409
6.26945	7.15832
6.26188	7.25724
6.25432	7.39237
6.24679	7.42904
6.23927	7.49703
6.23177	7.60001
6.22429	7.60194
6.21683	7.69388
6.20938	7.768
6.20195	7.76842
6.19454	7.863
6.18715	8.01323
6.17978	8.05944
6.17242	8.07357
6.16508	8.17777
6.15776	8.29256
6.15045	8.35699
6.14317	8.46468
6.1359	8.4548
6.12864	8.48532
6.12141	8.6755
6.11419	8.89103
6.10699	8.87529
6.0998	8.85683
6.09263	8.88501
6.08549	8.88957
6.07835	8.99561
6.07123	9.11049
6.06413	9.01638
6.05705	9.16139
6.04998	9.55435
6.04293	9.34912
6.0359	9.08431
6.02888	8.94096
6.02187	8.88151
6.01489	8.97347
6.00792	8.87006
6.00096	8.76281
5.99403	8.78774
5.98711	8.71036
5.9802	8.54748
5.97331	8.58482
5.96644	8.66034
5.95958	8.52763
5.95274	8.5092
5.94591	8.59714
5.9391	8.77101
5.9323	8.57593
5.92552	8.3462
5.91876	8.33796
5.91201	8.28419
5.90528	8.29105
5.89856	8.39697
5.89186	8.37584
5.88517	8.34635
5.8785	8.27327
5.87184	7.99812
5.8652	7.94709
5.85857	7.835
5.85196	7.65668
5.84536	7.5031
5.83878	7.4427
5.83221	7.57886
5.82566	7.74745
5.81912	7.77574
5.81259	7.57281
5.80608	7.45604
5.79959	7.58546
5.79311	7.67839
5.78665	7.70111
5.78019	7.80205
5.77376	7.92331
5.76734	8.00827
5.76093	7.85517
5.75453	7.85521
5.74815	8.04161
5.74179	8.08057
5.73543	8.02813
5.7291	8.03647
5.72277	8.14478
5.71646	8.16509
5.71017	8.14635
5.70389	8.01886
5.69762	8.08528
5.69136	8.18654
5.68513	8.1654
5.6789	8.18592
5.67268	8.13268
5.66648	8.09053
5.6603	8.12954
5.65413	8.19236
5.64797	8.26747
5.64182	8.45399
5.63569	8.35971
5.62957	8.30636
5.62347	8.47378
5.61737	8.59731
5.61129	8.57421
5.60522	8.60072
5.59917	8.61479
5.59313	8.57383
5.5871	8.6203
5.58109	8.67986
5.57509	8.64983
5.5691	8.48844
5.56312	8.33159
5.55716	8.27201
5.55121	8.26076
5.54528	8.21428
5.53935	8.02954
5.53344	7.8658
5.52754	7.76748
5.52166	7.65454
5.51578	7.56756
5.50992	7.4186
5.50407	7.22281
5.49823	7.01844
5.49241	6.81202
5.4866	6.61099
5.4808	6.54039
5.47501	6.35021
5.46923	6.20854
5.46347	6.18277
5.45772	6.11935
5.45198	6.03295
5.44625	6.0169
5.44054	6.09062
5.43484	6.22607
5.42914	6.39843
5.42347	6.57146
5.4178	6.58875
5.41214	6.6558
5.4065	6.81101
5.40087	6.92341
5.39525	7.02062
5.38964	7.13711
5.38404	7.2743
5.37846	7.47441
5.37288	7.61946
5.36732	7.62706
5.36177	7.72574
5.35623	7.87103
5.35071	8.02065
5.34519	8.17527
5.33968	8.38119
5.33419	8.59841
5.32871	8.82307
5.32324	9.04122
5.31778	9.29298
5.31233	9.53898
5.30689	9.735
5.30147	10.0241
5.29605	10.3051
5.29065	10.5816
5.28525	10.8175
5.27987	11.097
5.2745	11.3611
5.26914	11.573
5.26379	11.9614
5.25845	12.3879
5.25312	12.7574
5.24781	13.1463
5.2425	13.5506
5.23721	13.8939
5.23192	14.1777
5.22665	14.4295
5.22138	14.6457
5.21613	14.956
5.21089	15.2422
5.20566	15.3627
5.20044	15.4274
5.19522	15.4599
5.19002	15.5453
5.18483	15.6287
5.17965	15.6615
5.17448	15.6692
5.16933	15.5976
5.16418	15.5271
5.15904	15.5062
5.15391	15.4882
5.14879	15.4011
5.14368	15.2233
5.13859	15.0437
5.1335	14.9119
5.12842	14.6626
5.12335	14.4921
5.1183	14.5062
5.11325	14.5762
5.10821	14.7114
5.10318	14.9474
5.09817	15.2063
5.09316	15.4271
5.08816	15.7255
5.08317	16.0511
5.07819	16.2737
5.07322	16.5578
5.06826	16.8405
5.06331	16.999
5.05837	17.1529
5.05344	17.3708
5.04852	17.5616
5.04361	17.7516
5.03871	17.9295
5.03382	18.1281
5.02894	18.4046
5.02406	18.6819
5.0192	18.8795
5.01435	19.0057
5.0095	19.1543
5.00467	19.3675
4.99984	19.5379
4.99502	19.6522
4.99021	19.7808
4.98542	19.8946
4.98063	20.002
4.97585	20.178
4.97108	20.3501
4.96632	20.5126
4.96156	20.7148
4.95682	20.9611
4.95209	21.2224
4.94736	21.5624
4.94264	21.8766
4.93794	22.2053
4.93324	22.5935
4.92855	22.9288
4.92387	23.3457
4.9192	23.8288
4.91453	24.2473
4.90988	24.631
4.90524	24.9914
4.9006	25.3485
4.89597	25.5955
4.89135	25.8246
4.88674	26.0429
4.88214	26.2243
4.87755	26.3901
4.87296	26.5048
4.86839	26.6404
4.86382	26.8327
4.85926	27.0898
4.85471	27.2189
4.85017	27.3189
4.84564	27.4546
4.84111	27.5971
4.8366	27.7045
4.83209	27.7816
4.82759	27.8692
4.8231	27.8965
4.81862	27.92
4.81415	27.9514
4.80968	27.9763
4.80522	28.018
4.80077	28.0731
4.79633	28.12
4.7919	28.1735
4.78747	28.0798
4.78306	27.8836
4.77865	27.6335
4.77425	27.4415
4.76986	27.449
4.76547	27.5941
4.7611	27.7775
4.75673	28.069
4.75237	28.4881
4.74802	28.9135
4.74367	29.3102
4.73934	29.6572
4.73501	29.9755
4.73069	30.3525
4.72638	30.6481
4.72207	30.9776
4.71777	31.2409
4.71348	31.5024
4.7092	31.75
4.70493	32.0216
4.70066	32.219
4.69641	32.3569
4.69216	32.6276
4.68791	32.854
4.68368	33.0587
4.67945	33.3851
4.67523	33.6655
4.67102	33.8836
4.66682	34.1305
4.66262	34.3545
4.65843	34.5435
4.65425	34.6717
4.65007	34.7158
4.64591	34.7431
4.64175	34.8046
4.6376	34.7975
4.63345	34.7338
4.62932	34.7709
4.62519	34.832
4.62106	34.901
4.61695	35.065
4.61284	35.2625
4.60874	35.4813
4.60465	35.7377
4.60056	36.0177
4.59648	36.3555
4.59241	36.6448
4.58835	37.0506
4.58429	37.3412
4.58024	37.5678
4.5762	37.7587
4.57216	37.954
4.56814	38.1057
4.56411	38.2369
4.5601	38.3219
4.55609	38.3674
4.55209	38.4365
4.5481	38.5352
4.54411	38.6824
4.54013	38.7689
4.53616	38.837
4.5322	38.9817
4.52824	39.1866
4.52429	39.3308
4.52034	39.5262
4.51641	39.7866
4.51247	40.0789
4.50855	40.3417
4.50463	40.5174
4.50072	40.6715
4.49682	40.8502
4.49292	41.0257
4.48903	41.2385
4.48515	41.5009
4.48127	41.8079
4.4774	42.0743
4.47354	42.2589
4.46968	42.4636
4.46584	42.7103
4.46199	42.9977
4.45815	43.2673
4.45432	43.5974
4.4505	43.9141
4.44668	44.1107
4.44287	44.3031
4.43907	44.4632
4.43527	44.6724
4.43148	44.8725
4.4277	45.0188
4.42392	45.196
4.42015	45.4054
4.41638	45.461
4.41262	45.5637
4.40887	45.7454
4.40513	45.8203
4.40139	45.8571
4.39765	45.949
4.39393	46.1484
4.39021	46.2832
4.38649	46.3711
4.38278	46.4886
4.37908	46.6413
4.37539	46.7933
4.3717	46.9371
4.36801	47.0264
4.36434	47.1189
4.36067	47.2244
4.357	47.3188
4.35335	47.399
4.34969	47.5268
4.34605	47.6326
4.34241	47.6809
4.33877	47.7284
4.33514	47.8452
4.33152	47.9666
4.32791	48.0366
4.3243	48.1178
4.32069	48.2147
4.3171	48.3363
4.31351	48.471
4.30992	48.6191
4.30634	48.8157
4.30277	49.0172
4.2992	49.1569
4.29564	49.2774
4.29208	49.4355
4.28853	49.568
4.28499	49.6952
4.28145	49.8951
4.27792	50.09
4.27439	50.2125
4.27087	50.2471
4.26735	50.2345
4.26384	50.3154
4.26034	50.3423
4.25684	50.3364
4.25335	50.5014
4.24986	50.7056
4.24638	50.8475
4.24291	51.0088
4.23944	51.159
4.23598	51.2088
4.23252	51.2851
4.22906	51.3641
4.22562	51.3187
4.22218	51.2146
4.21874	51.1273
4.21531	51.0599
4.21189	51.0452
4.20847	51.0661
4.20506	50.9887
4.20165	50.9038
4.19825	50.8969
4.19485	50.9764
4.19146	51.0008
4.18807	50.9847
4.18469	50.9605
4.18132	50.9568
4.17795	50.9484
4.17458	50.9763
4.17123	50.9659
4.16787	51.0045
4.16453	51.0956
4.16118	51.1254
4.15785	51.089
4.15451	51.1058
4.15119	51.1693
4.14787	51.2103
4.14455	51.2284
4.14124	51.3024
4.13794	51.4145
4.13464	51.5555
4.13134	51.6989
4.12805	51.7452
4.12477	51.8057
4.12149	51.937
4.11822	52.0497
4.11495	52.1232
4.11168	52.2222
4.10843	52.314
4.10517	52.3327
4.10192	52.3911
4.09868	52.4603
4.09545	52.5662
4.09221	52.645
4.08899	52.6426
4.08576	52.6139
4.08255	52.5493
4.07933	52.5386
4.07613	52.6169
4.07292	52.6013
4.06973	52.4988
4.06654	52.5203
4.06335	52.6016
4.06017	52.5998
4.05699	52.5359
4.05382	52.4908
4.05065	52.5296
4.04749	52.4868
4.04433	52.4618
4.04118	52.4082
4.03803	52.4545
4.03489	52.4526
4.03175	52.4132
4.02862	52.4387
4.02549	52.4772
4.02237	52.4854
4.01925	52.3599
4.01614	52.2626
4.01303	52.3034
4.00993	52.2832
4.00683	52.2193
4.00373	52.2125
4.00064	52.1822
3.99756	52.2078
3.99448	52.2531
3.9914	52.3019
3.98833	52.363
3.98527	52.399
3.98221	52.4358
3.97915	52.5072
3.9761	52.5093
3.97305	52.4747
3.97001	52.4617
3.96697	52.4407
3.96394	52.4057
3.96091	52.4221
3.95789	52.5314
3.95487	52.6023
3.95186	52.6449
3.94885	52.7344
3.94584	52.8172
3.94284	52.8633
3.93984	52.9785
3.93685	53.0825
3.93386	53.1199
3.93088	53.1011
3.9279	53.0561
3.92493	52.9757
3.92196	52.8056
3.919	52.5782
3.91604	52.3085
3.91308	52.1146
3.91013	51.9979
3.90718	51.7231
3.90424	51.4916
3.9013	51.4057
3.89837	51.321
3.89544	51.179
3.89252	50.875
3.8896	50.3908
3.88668	49.7092
3.88377	48.6229
3.88086	47.1881
3.87796	46.1963
3.87506	45.8488
3.87217	45.5609
3.86928	45.792
3.86639	46.6315
3.86351	47.3128
3.86064	47.5945
3.85776	47.6448
3.8549	47.6331
3.85203	47.6698
3.84917	47.7346
3.84631	47.6563
3.84346	47.6297
3.84062	47.7195
3.83777	47.7212
3.83494	47.782
3.8321	47.9101
3.82927	48.0702
3.82644	48.2176
3.82362	48.3383
3.82081	48.5319
3.81799	48.6965
3.81518	48.8758
3.81238	49.1073
3.80958	49.3085
3.80678	49.4004
3.80399	49.464
3.8012	49.6187
3.79841	49.7463
3.79563	49.8252
3.79286	49.9389
3.79008	50.0163
3.78731	50.0634
3.78455	50.1004
3.78179	50.1311
3.77903	50.1748
3.77628	50.2188
3.77353	50.2273
3.77079	50.2442
3.76805	50.1859
3.76531	50.0201
3.76258	49.9049
3.75985	49.7599
3.75713	49.6343
3.7544	49.4726
3.75169	49.2626
3.74898	48.9337
3.74627	48.5841
3.74356	48.267
3.74086	47.9784
3.73816	47.7633
3.73547	47.6073
3.73278	47.4288
3.7301	47.342
3.72741	47.3409
3.72474	47.3757
3.72206	47.4597
3.71939	47.5435
3.71673	47.5943
3.71406	47.6615
3.71141	47.8291
3.70875	47.9136
3.7061	47.8785
3.70345	47.828
3.70081	47.7553
3.69817	47.6303
3.69553	47.4943
3.6929	47.2905
3.69027	46.9638
3.68765	46.7334
3.68503	46.5156
3.68241	46.2983
3.6798	46.0335
3.67719	45.7651
3.67458	45.5629
3.67198	45.4586
3.66938	45.3082
3.66678	45.0735
3.66419	44.8872
3.66161	44.7243
3.65902	44.6039
3.65644	44.4798
3.65387	44.4443
3.65129	44.4696
3.64872	44.5111
3.64616	44.5273
3.64359	44.6345
3.64103	44.7582
3.63848	44.7546
3.63593	44.7425
3.63338	44.7638
3.63084	44.8296
3.6283	44.8423
3.62576	44.7569
3.62322	44.6936
3.62069	44.6184
3.61817	44.5234
3.61564	44.4194
3.61312	44.2947
3.61061	44.1454
3.6081	44.049
3.60559	43.961
3.60308	43.8421
3.60058	43.7796
3.59808	43.7606
3.59558	43.7649
3.59309	43.8131
3.59061	43.8054
3.58812	43.9399
3.58564	44.1797
3.58316	44.3694
3.58069	44.4949
3.57822	44.6487
3.57575	44.8185
3.57328	45.0659
3.57082	45.2407
3.56836	45.3271
3.56591	45.4808
3.56346	45.6244
3.56101	45.6948
3.55857	45.8352
3.55613	45.9644
3.55369	46.0126
3.55126	46.1291
3.54883	46.1813
3.5464	46.2066
3.54397	46.3288
3.54155	46.3122
3.53914	46.2327
3.53672	46.2005
3.53431	46.1607
3.5319	46.1846
3.5295	46.2273
3.5271	46.2345
3.5247	46.1795
3.52231	46.1217
3.51991	46.1433
3.51753	46.2011
3.51514	46.2713
3.51276	46.3201
3.51038	46.3823
3.50801	46.4939
3.50563	46.5723
3.50327	46.695
3.5009	46.755
3.49854	46.8027
3.49618	46.8405
3.49382	46.8781
3.49147	46.9505
3.48912	47.0707
3.48677	47.1618
3.48443	47.2889
3.48209	47.3769
3.47975	47.4885
3.47742	47.5021
3.47509	47.4093
3.47276	47.346
3.47044	47.3574
3.46812	47.3578
3.4658	47.3814
3.46348	47.3645
3.46117	47.281
3.45886	47.237
3.45656	47.1715
3.45425	47.0689
3.45195	46.935
3.44966	46.797
3.44736	46.7268
3.44507	46.6053
3.44279	46.3751
3.4405	46.2958
3.43822	46.1784
3.43594	46.0154
3.43367	45.8761
3.43139	45.712
3.42912	45.6033
3.42686	45.4689
3.42459	45.2681
3.42233	44.9593
3.42007	44.7841
3.41782	44.6495
3.41557	44.4706
3.41332	44.3576
3.41108	44.3469
3.40883	44.2842
3.40659	44.1832
3.40435	44.2077
3.40212	44.2575
3.39989	44.2035
3.39766	44.093
3.39544	44.1169
3.39322	44.0281
3.391	43.881
3.38878	43.7559
3.38657	43.7026
3.38436	43.6498
3.38215	43.4649
3.37994	43.317
3.37774	43.1723
3.37554	43.0714
3.37335	42.9026
3.37115	42.759
3.36896	42.7056
3.36678	42.6208
3.36459	42.4752
3.36241	42.33
3.36023	42.1044
3.35805	41.9139
3.35588	41.855
3.35371	41.7292
3.35154	41.4955
3.34938	41.2548
3.34721	41.0056
3.34505	40.8483
3.3429	40.6061
3.34074	40.3119
3.33859	40.0466
3.33644	39.7794
3.3343	39.5109
3.33215	39.1849
3.33001	38.8012
3.32788	38.5236
3.32574	38.352
3.32361	38.146
3.32148	37.874
3.31936	37.6768
3.31723	37.5871
3.31511	37.4813
3.31299	37.3454
3.31088	37.1598
3.30876	36.9779
3.30665	36.9253
3.30455	36.7928
3.30244	36.6822
3.30034	36.6451
3.29824	36.4627
3.29614	36.3348
3.29405	36.1953
3.29196	36.0361
3.28987	35.9573
3.28778	35.8683
3.2857	35.7241
3.28362	35.6687
3.28154	35.6784
3.27946	35.6042
3.27739	35.5564
3.27532	35.5337
3.27325	35.4653
3.27119	35.3265
3.26913	35.2254
3.26707	35.1607
3.26501	34.9618
3.26295	34.7675
3.2609	34.5719
3.25885	34.368
3.2568	34.1032
3.25476	33.8428
3.25272	33.6266
3.25068	33.4708
3.24864	33.3375
3.24661	33.1662
3.24458	33.0417
3.24255	32.8441
3.24052	32.5276
3.2385	32.3094
3.23648	32.1892
3.23446	32.0971
3.23244	32.0019
3.23043	31.9101
3.22841	31.7889
3.2264	31.6441
3.2244	31.5599
3.22239	31.5073
3.22039	31.4219
3.21839	31.3232
3.2164	31.124
3.2144	30.8501
3.21241	30.629
3.21042	30.2962
3.20844	29.9077
3.20645	29.5967
3.20447	29.3402
3.20249	29.1142
3.20051	28.8021
3.19854	28.4789
3.19657	28.2155
3.1946	27.898
3.19263	27.4956
3.19067	27.133
3.1887	26.7764
3.18674	26.407
3.18479	26.076
3.18283	25.7908
3.18088	25.5701
3.17893	25.5254
3.17698	25.5784
3.17504	25.5589
3.17309	25.5639
3.17115	25.5835
3.16921	25.5184
3.16728	25.4522
3.16534	25.5138
3.16341	25.5466
3.16148	25.4972
3.15956	25.3748
3.15763	25.4016
3.15571	25.5094
3.15379	25.5596
3.15187	25.4614
3.14996	25.2992
3.14805	25.2287
3.14614	25.2226
3.14423	25.0879
3.14232	24.9892
3.14042	24.9849
3.13852	24.9457
3.13662	24.8133
3.13472	24.7914
3.13283	24.7778
3.13094	24.5952
3.12905	24.323
3.12716	24.0863
3.12528	23.985
3.12339	23.8412
3.12151	23.5968
3.11964	23.4989
3.11776	23.329
3.11589	23.0865
3.11401	22.911
3.11214	22.7394
3.11028	22.4994
3.10841	22.2114
3.10655	22.089
3.10469	22.1254
3.10283	22.1264
3.10098	22.1376
3.09912	22.1593
3.09727	22.0834
3.09542	21.9567
3.09358	21.8056
3.09173	21.6766
3.08989	21.6161
3.08805	21.5303
3.08621	21.4482
3.08437	21.5497
3.08254	21.6493
3.08071	21.582
3.07888	21.4636
3.07705	21.5532
3.07523	21.7549
3.0734	21.7639
3.07158	21.64
3.06977	21.649
3.06795	21.693
3.06613	21.7285
3.06432	21.6187
3.06251	21.4271
3.0607	21.2329
3.0589	20.9753
3.0571	20.7342
3.05529	20.5754
3.05349	20.3704
3.0517	20.1013
3.0499	19.892
3.04811	19.7713
3.04632	19.5786
3.04453	19.4068
3.04274	19.3289
3.04096	19.2267
3.03918	18.9842
3.0374	18.7439
3.03562	18.5992
3.03384	18.3661
3.03207	18.1
3.03029	17.738
3.02852	17.4475
3.02676	17.3996
3.02499	17.2148
3.02323	16.7152
3.02146	16.4301
3.0197	16.189
3.01795	15.8916
3.01619	15.6008
3.01444	15.3335
3.01269	14.9233
3.01094	14.5968
3.00919	14.3648
3.00744	13.9806
3.0057	13.5766
3.00396	13.3372
3.00222	13.0817
3.00048	12.8017
2.99875	12.5992
2.99701	12.3239
2.99528	11.9913
2.99355	11.7709
2.99183	11.4416
2.9901	11.1372
2.98838	11.1013
2.98666	11.017
2.98494	10.9168
2.98322	10.8684
2.9815	10.885
2.97979	10.9833
2.97808	11.0043
2.97637	10.873
2.97466	10.8
2.97295	10.7918
2.97125	10.7484
2.96955	10.6908
2.96785	10.6325
2.96615	10.5848
2.96446	10.4015
2.96276	10.2171
2.96107	10.1015
2.95938	9.93883
2.95769	9.88493
2.95601	9.78243
2.95432	9.53379
2.95264	9.39569
2.95096	9.30767
2.94928	9.22789
2.9476	9.21994
2.94593	9.33769
2.94425	9.53577
2.94258	9.71714
2.94092	9.93835
2.93925	10.12
2.93758	10.0866
2.93592	10.0395
2.93426	10.0338
2.9326	9.96307
2.93094	9.84349
2.92928	9.5556
2.92763	9.24894
2.92598	8.92579
2.92433	8.63712
2.92268	8.30281
2.92103	8.03596
2.91939	7.77868
2.91775	7.43161
2.9161	7.1888
2.91447	7.0924
2.91283	6.96899
2.91119	6.70149
2.90956	6.34904
2.90793	5.96559
2.9063	5.74066
2.90467	5.42539
2.90304	5.01207
2.90142	4.77758
2.89979	4.60627
2.89817	4.40699
2.89656	4.30735
2.89494	4.28393
2.89332	4.34753
2.89171	4.25715
2.8901	4.13174
2.88849	4.12824
2.88688	4.21389
2.88527	4.23553
2.88367	4.16486
2.88206	4.13662
2.88046	4.05142
2.87886	3.91066
2.87727	3.93826
2.87567	4.14624
2.87408	4.35663
2.87248	4.35626
2.87089	4.22426
2.8693	4.09966
2.86772	4.28375
2.86613	4.70274
2.86455	5.1899
2.86297	5.47074
2.86139	5.29978
2.85981	4.62371
2.85823	3.6264
2.85666	2.91935
2.85508	2.47008
2.85351	2.34505
2.85194	2.51198
2.85038	2.69466
2.84881	2.75354
2.84724	2.98222
2.84568	3.34027
2.84412	3.75212
2.84256	4.24899
2.841	4.66488
2.83945	5.22988
2.83789	5.81863
2.83634	6.30861
2.83479	6.76643
2.83324	7.37451
2.83169	8.03142
2.83015	8.53454
2.82861	8.9669
2.82706	9.53017
2.82552	10.0354
2.82398	10.456
2.82245	10.754
2.82091	11.1003
2.81938	11.3184
2.81784	11.4579
2.81631	11.6941
2.81479	11.8128
2.81326	11.9395
2.81173	12.025
2.81021	12.0366
2.80869	12.1396
2.80716	12.2154
2.80565	12.2339
2.80413	12.3079
2.80261	12.3115
2.8011	12.11
2.79959	12.0328
2.79808	11.9921
2.79657	11.9353
2.79506	11.7998
2.79355	11.5673
2.79205	11.3781
2.79055	11.3132
2.78904	11.2862
2.78754	11.316
2.78605	11.3081
2.78455	11.3161
2.78306	11.3098
2.78156	11.5174
2.78007	11.5303
2.77858	11.6316
2.77709	12.0149
2.77561	12.1383
2.77412	12.3299
2.77264	12.6483
2.77116	13.0329
2.76968	13.6362
2.7682	14.1644
2.76672	14.4341
2.76524	14.7493
2.76377	15.194
2.7623	15.6825
2.76083	16.017
2.75936	16.2922
2.75789	16.7822
2.75642	17.5783
2.75496	18.2948
2.7535	18.4952
2.75203	18.9435
2.75057	19.6485
2.74912	20.1685
2.74766	20.7258
2.7462	21.4332
2.74475	21.9544
2.7433	22.5573
2.74185	23.4168
2.7404	24.087
2.73895	24.332
2.7375	24.4407
2.73606	25.1631
2.73462	26.0648
2.73318	26.6517
2.73174	27.3263
2.7303	27.9402
2.72886	28.4624
2.72742	29.0715
2.72599	30.0117
2.72456	30.8378
2.72313	30.9833
2.7217	31.4628
2.72027	32.0676
2.71884	31.902
2.71742	31.9606
2.71599	32.0604
2.71457	32.4604
2.71315	33.0793
2.71173	34.1049
2.71032	34.6268
2.7089	34.5362
2.70748	34.5271
2.70607	34.6733
2.70466	34.965
2.70325	35.3638
2.70184	36.0267
2.70043	36.3642
2.69903	36.3934
2.69762	36.6848
2.69622	37.076
2.69482	37.536
2.69342	37.7742
2.69202	37.4214
2.69062	37.3146
2.68923	37.5262
2.68783	37.8981
2.68644	38.169
2.68505	38.1576
2.68366	38.2528
2.68227	38.2972
2.68089	38.5837
2.6795	39.0875
2.67812	39.3075
2.67673	39.5524
2.67535	39.2895
2.67397	39.0063
2.6726	39.1993
2.67122	40.3759
2.66984	40.6714
2.66847	40.0582
2.6671	40.619
2.66572	41.078
2.66435	40.9168
2.66299	40.3104
2.66162	40.2238
2.66025	40.4226
2.65889	40.6165
2.65753	40.7207
2.65616	41.3501
2.65481	41.8912
2.65345	42.5675
2.65209	43.0026
2.65073	42.9776
2.64938	43.0073
2.64803	43.2424
2.64667	43.5917
2.64532	43.6244
2.64397	43.3213
2.64263	43.2803
2.64128	43.0071
2.63994	42.5372
2.63859	42.0853
2.63725	41.6447
2.63591	41.1437
2.63457	40.9091
2.63323	40.2383
2.6319	39.7793
2.63056	39.9401
2.62923	39.0685
2.62789	38.4288
2.62656	38.2826
2.62523	37.5311
2.6239	37.0342
2.62258	36.73
2.62125	36.8845
2.61993	36.6822
2.6186	35.9763
2.61728	35.7932
2.61596	35.107
2.61464	34.3235
2.61332	34.0402
2.61201	33.6458
2.61069	33.4765
2.60938	33.3743
2.60807	33.1808
2.60675	33.3479
2.60544	33.5312
2.60414	33.1166
2.60283	32.9332
2.60152	33.0516
2.60022	33.1683
2.59891	33.3182
2.59761	33.8222
2.59631	34.9017
2.59501	36.076
2.59371	35.5221
2.59242	34.5188
2.59112	34.1466
2.58983	34.0714
2.58853	34.1944
2.58724	34.2972
2.58595	34.025
2.58466	33.9382
2.58338	33.8547
2.58209	33.3449
2.5808	32.9454
2.57952	32.4366
2.57824	32.1444
2.57695	31.8976
2.57567	31.4999
2.5744	31.534
2.57312	31.6011
2.57184	31.0995
2.57057	31.1937
2.56929	31.4716
2.56802	31.4786
2.56675	31.5922
2.56548	32.019
2.56421	32.4711
2.56294	32.7034
2.56168	32.8478
2.56041	32.713
2.55915	32.6271
2.55789	32.6146
2.55662	32.7654
2.55536	33.0342
2.5541	33.3736
2.55285	33.8644
2.55159	34.1359
2.55034	34.3442
2.54908	34.5183
2.54783	34.8814
2.54658	35.1371
2.54533	35.199
2.54408	35.2639
2.54283	35.4056
2.54159	35.2653
2.54034	35.0015
2.5391	34.8985
2.53785	34.7327
2.53661	34.3992
2.53537	34.1477
2.53413	33.8912
2.53289	33.5986
2.53166	33.3971
2.53042	33.2194
2.52919	32.9673
2.52795	32.8982
2.52672	33.1561
2.52549	33.5317
2.52426	34.0074
2.52303	34.5763
2.52181	35.0665
2.52058	35.791
2.51936	36.5417
2.51813	37.1977
2.51691	37.9258
2.51569	38.6546
2.51447	39.2145
2.51325	39.7553
2.51203	40.258
2.51082	40.6897
2.5096	40.898
2.50839	40.9556
2.50717	41.0839
2.50596	41.3181
2.50475	41.4329
2.50354	41.3998
2.50233	41.3429
2.50113	41.3968
2.49992	41.4649
2.49872	41.4324
2.49751	41.4654
2.49631	41.4678
2.49511	41.4397
2.49391	41.5184
2.49271	41.5502
2.49151	41.5528
2.49031	41.6515
2.48912	41.7185
2.48792	41.6802
2.48673	41.7157
2.48554	41.8192
2.48435	41.8349
2.48316	41.7522
2.48197	41.6169
2.48078	41.4865
2.4796	41.4058
2.47841	41.1086
2.47723	40.851
2.47604	40.8208
2.47486	40.8103
2.47368	40.8415
2.4725	41.0091
2.47132	41.0856
2.47014	41.1492
2.46897	41.5391
2.46779	42.0406
2.46662	42.5589
2.46545	43.0682
2.46427	43.532
2.4631	44.0552
2.46193	44.45
2.46077	44.8882
2.4596	45.1622
2.45843	45.1814
2.45727	45.1958
2.4561	45.2738
2.45494	45.4395
2.45378	45.5344
2.45262	45.7355
2.45146	46.0844
2.4503	46.4442
2.44914	46.6618
2.44799	46.8504
2.44683	46.9885
2.44568	47.1418
2.44452	47.2155
2.44337	47.0565
2.44222	46.8931
2.44107	46.7441
2.43992	46.3592
2.43877	45.9735
2.43763	45.3804
2.43648	44.6501
2.43534	44.0885
2.43419	43.4578
2.43305	42.7435
2.43191	42.2588
2.43077	41.9099
2.42963	41.5406
2.42849	41.1099
2.42736	40.805
2.42622	40.6003
2.42509	40.2254
2.42395	39.7312
2.42282	39.228
2.42169	38.7104
2.42056	38.037
2.41943	37.2891
2.4183	36.6174
2.41717	35.9363
2.41605	35.2806
2.41492	34.7381
2.4138	34.2653
2.41267	33.8666
2.41155	33.6043
2.41043	33.3747
2.40931	33.0738
2.40819	32.8469
2.40707	32.5097
2.40595	32.3339
2.40484	32.3533
2.40372	32.2784
2.40261	31.9892
2.4015	31.6919
2.40039	31.4659
2.39928	31.1568
2.39817	30.5511
2.39706	29.9219
2.39595	29.4626
2.39484	29.0367
2.39374	28.4662
2.39263	27.9873
2.39153	27.672
2.39043	27.333
2.38932	27.1461
2.38822	27.1018
2.38712	27.2383
2.38603	27.298
2.38493	27.1938
2.38383	27.2502
2.38274	27.3639
2.38164	27.3772
2.38055	27.5036
2.37946	27.6734
2.37836	27.799
2.37727	27.9424
2.37618	28.1408
2.3751	28.2638
2.37401	28.1859
2.37292	27.9004
2.37184	27.6406
2.37075	27.3098
2.36967	26.7816
2.36859	26.079
2.3675	25.2332
2.36642	24.2141
2.36534	23.5555
2.36427	22.9687
2.36319	22.4127
2.36211	22.1257
2.36104	21.9531
2.35996	21.8662
2.35889	22.0519
2.35781	22.229
2.35674	22.4054
2.35567	22.8109
2.3546	23.2051
2.35353	23.5614
2.35247	24.3259
2.3514	25.0868
2.35033	25.7937
2.34927	26.7038
2.3482	27.6525
2.34714	28.4309
2.34608	28.8874
2.34502	29.2898
2.34396	29.831
2.3429	30.3973
2.34184	30.7038
2.34078	30.8386
2.33973	30.5164
2.33867	29.9906
2.33762	29.2238
2.33656	28.3277
2.33551	27.5474
2.33446	27.1035
2.33341	26.8789
2.33236	26.7094
2.33131	26.4299
2.33026	26.3932
2.32922	26.7751
2.32817	27.5412
2.32712	28.3278
2.32608	29.3609
2.32504	31.1543
2.324	33.1373
2.32295	35.231
2.32191	37.5508
2.32087	39.7841
2.31984	42.0812
2.3188	44.2669
2.31776	46.2421
2.31673	48.0738
2.31569	49.6757
2.31466	51.0907
2.31362	52.3093
2.31259	53.282
2.31156	54.0226
2.31053	54.7464
2.3095	55.3723
2.30847	55.5881
2.30745	55.7432
2.30642	56.0232
2.3054	56.0742
2.30437	55.7278
2.30335	55.3092
2.30232	54.8075
2.3013	54.2782
2.30028	53.7029
2.29926	53.0377
2.29824	52.328
2.29722	51.797
2.29621	51.5487
2.29519	51.2376
2.29417	50.9429
2.29316	50.7425
2.29215	50.627
2.29113	50.4972
2.29012	50.2158
2.28911	49.9375
2.2881	49.8221
2.28709	49.5481
2.28608	49.2629
2.28507	49.0247
2.28407	48.8414
2.28306	48.7494
2.28206	48.6358
2.28105	48.6685
2.28005	48.8144
2.27905	49.1379
2.27805	49.2744
2.27705	49.4619
2.27605	49.9833
2.27505	50.5343
2.27405	51.0244
2.27305	51.6322
2.27206	52.3515
2.27106	52.9713
2.27007	53.6903
2.26907	54.2655
2.26808	54.7387
2.26709	55.2652
2.2661	55.7761
2.26511	56.2067
2.26412	56.4673
2.26313	56.5089
2.26214	56.7271
2.26116	56.9258
2.26017	57.0553
2.25919	57.2477
2.2582	57.426
2.25722	57.5426
2.25624	57.5937
2.25526	57.5274
2.25428	57.3691
2.2533	57.1152
2.25232	56.7247
2.25134	56.2677
2.25036	55.8005
2.24939	55.2899
2.24841	54.7011
2.24744	54.0638
2.24646	53.3244
2.24549	52.6992
2.24452	51.9955
2.24355	51.3875
2.24257	50.9102
2.24161	50.369
2.24064	49.9847
2.23967	49.7163
2.2387	49.3503
2.23774	49.0227
2.23677	48.4674
2.23581	47.9675
2.23484	47.7254
2.23388	47.5864
2.23292	47.7077
2.23196	48.3181
2.231	49.0182
2.23004	49.7345
2.22908	50.3203
2.22812	51.0284
2.22716	51.7247
2.22621	52.4163
2.22525	53.1602
2.2243	53.9936
2.22334	54.795
2.22239	55.4163
2.22144	56.0086
2.22049	56.479
2.21953	56.7242
2.21859	57.0393
2.21764	57.6146
2.21669	57.9711
2.21574	58.3075
2.21479	59.1088
2.21385	60.1048
2.2129	61.0008
2.21196	61.704
2.21102	62.4678
2.21007	63.3154
2.20913	64.2837
2.20819	65.2388
2.20725	65.9344
2.20631	66.3922
2.20537	67.1603
2.20444	68.0284
2.2035	68.623
2.20256	69.049
2.20163	69.3922
2.20069	69.7349
2.19976	70.0278
2.19883	70.3296
2.19789	70.7388
2.19696	71.0109
2.19603	71.0819
2.1951	71.3639
2.19417	71.6779
2.19325	71.8503
2.19232	72.0124
2.19139	72.2231
2.19047	72.3633
2.18954	72.4877
2.18862	72.8136
2.18769	72.8545
2.18677	72.7767
2.18585	72.9278
2.18493	73.03
2.18401	73.0695
2.18309	73.0589
2.18217	73.1963
2.18125	73.3202
2.18033	73.2287
2.17942	73.3132
2.1785	73.5981
2.17759	73.783
2.17667	73.9024
2.17576	73.9379
2.17485	74.0297
2.17393	74.1153
2.17302	74.0723
2.17211	74.1974
2.1712	74.4374
2.17029	74.4635
2.16939	74.542
2.16848	74.8469
2.16757	74.917
2.16667	74.8366
2.16576	74.8577
2.16486	74.9604
2.16395	75.0823
2.16305	75.186
2.16215	75.2421
2.16125	75.279
2.16035	75.3558
2.15945	75.4452
2.15855	75.5126
2.15765	75.5518
2.15675	75.6047
2.15586	75.641
2.15496	75.5696
2.15406	75.5014
2.15317	75.6098
2.15228	75.7118
2.15138	75.8484
2.15049	75.8681
2.1496	75.657
2.14871	75.6999
2.14782	75.9971
2.14693	76.0629
2.14604	76.1393
2.14515	76.2295
2.14427	76.3055
2.14338	76.3074
2.14249	76.2313
2.14161	76.3996
2.14072	76.6741
2.13984	76.738
2.13896	76.8695
2.13808	76.9269
2.13719	76.7859
2.13631	76.6701
2.13543	76.6996
2.13455	76.8333
2.13368	76.8166
2.1328	76.9589
2.13192	76.9904
2.13105	76.8904
2.13017	76.8886
2.1293	76.8751
2.12842	76.7869
2.12755	76.7703
2.12668	76.9541
2.1258	77.0195
2.12493	77.0728
2.12406	77.1956
2.12319	77.2827
2.12232	77.1309
2.12145	77.1071
2.12059	77.2429
2.11972	77.3705
2.11885	77.3284
2.11799	77.4
2.11712	77.5628
2.11626	77.7193
2.1154	77.8058
2.11453	77.8951
2.11367	77.8683
2.11281	77.696
2.11195	77.6804
2.11109	77.6108
2.11023	77.6296
2.10937	77.7658
2.10851	77.7613
2.10766	77.9848
2.1068	78.3183
2.10594	78.3496
2.10509	78.1195
2.10423	77.9676
2.10338	78.1045
2.10253	78.2147
2.10168	78.2276
2.10082	78.2713
2.09997	78.3249
2.09912	78.2386
2.09827	78.3231
2.09742	78.4369
2.09658	78.5194
2.09573	78.5618
2.09488	78.7323
2.09404	78.6584
2.09319	78.6558
2.09235	78.8704
2.0915	78.9796
2.09066	79.1185
2.08982	79.2924
2.08897	79.2214
2.08813	79.0031
2.08729	78.994
2.08645	79.1866
2.08561	79.2143
2.08477	79.251
2.08394	79.2581
2.0831	79.2442
2.08226	79.3939
2.08143	79.3877
2.08059	79.1993
2.07976	79.4752
2.07892	79.8008
2.07809	79.6669
2.07726	79.3088
2.07643	79.2874
2.07559	79.4917
2.07476	79.3861
2.07393	79.3824
2.0731	79.5457
2.07228	79.5357
2.07145	79.5414
2.07062	79.5647
2.06979	79.3966
2.06897	79.6145
2.06814	79.918
2.06732	79.638
2.06649	79.4932
2.06567	79.7373
2.06485	79.6192
2.06403	79.6711
2.0632	79.6099
2.06238	79.2919
2.06156	79.3179
2.06074	79.7257
2.05993	79.7701
2.05911	79.6747
2.05829	79.6624
2.05747	79.6552
2.05666	79.6744
2.05584	79.6647
2.05503	79.6439
2.05421	79.7032
2.0534	79.8015
2.05259	79.7468
2.05177	79.6833
2.05096	79.8118
2.05015	79.8116
2.04934	79.8115
2.04853	79.7251
2.04772	79.745
2.04691	79.7474
2.04611	79.7535
2.0453	79.7926
2.04449	79.7633
2.04369	79.6374
2.04288	79.5261
2.04208	79.5277
2.04127	79.7932
2.04047	79.8401
2.03967	79.6877
2.03886	79.5089
2.03806	79.4616
2.03726	79.4918
2.03646	79.5942
2.03566	79.6767
2.03486	79.5344
2.03407	79.5042
2.03327	79.4079
2.03247	79.3158
2.03167	79.3188
2.03088	79.3144
2.03008	79.3638
2.02929	79.3481
2.0285	79.2043
2.0277	79.2475
2.02691	79.2803
2.02612	79.2477
2.02533	79.2916
2.02453	79.1771
2.02374	79.147
2.02295	79.1516
2.02217	79.2396
2.02138	79.2529
2.02059	79.1766
2.0198	79.0567
2.01902	78.978
2.01823	79.1171
2.01744	79.098
2.01666	79.0286
2.01588	79.2156
2.01509	79.3378
2.01431	79.1156
2.01353	79.0081
2.01275	79.2725
2.01196	79.4796
2.01118	79.3636
2.0104	79.2006
2.00963	79.1776
2.00885	79.2625
2.00807	79.1987
2.00729	79.2234
2.00651	79.2077
2.00574	79.0164
2.00496	79.1185
2.00419	79.2737
2.00341	79.2336
2.00264	79.1162
2.00187	78.993
2.00109	78.9583
2.00032	79.173
