Name: Grossular Garnet Ca_3Al_2(SiO_4)_3
Type: Mineral
Class: Silicates
Subclass: Nesosilicates
Particle Size: 45-125um
Sample No.: NS-3B
Owner: JPL
Wavelength range: IR
Origin: Mexico, Lake Jaco
Collected by New, David
Description: 





Measurement: Hemispherical reflectance
First Column: X
Second Column: Y
X Units:  Wavelength (micrometers)
Y Units:  Reflectance (percent)
First X Value: 15.3853
Last X Value: 2.00032
Number of X Values: 2256
Additional information: ns03ba.txt
 
15.3853	2.362
15.3397	2.53568
15.2945	2.71027
15.2495	3.05271
15.2048	3.0569
15.1603	2.76811
15.1161	2.96716
15.0722	3.35768
15.0285	3.3729
14.9851	3.60928
14.9419	3.77888
14.8989	3.78854
14.8563	3.87827
14.8138	3.94706
14.7716	4.01935
14.7296	4.08193
14.6879	4.22515
14.6464	4.24054
14.6052	4.22042
14.5641	4.24452
14.5233	4.43351
14.4828	4.71561
14.4424	4.95742
14.4023	5.1521
14.3624	5.10278
14.3227	5.10278
14.2833	5.1369
14.244	5.22202
14.205	5.40364
14.1662	5.49294
14.1276	5.50016
14.0892	5.49554
14.051	5.55631
14.0131	5.38996
13.9753	5.23281
13.9377	5.44088
13.9004	5.72881
13.8632	5.81277
13.8262	5.7148
13.7895	5.76136
13.7529	5.89138
13.7165	5.9582
13.6803	5.82034
13.6443	5.84514
13.6085	5.93948
13.5729	5.97091
13.5374	6.12706
13.5022	6.18569
13.4671	6.22256
13.4322	6.31475
13.3975	6.4081
13.363	6.55507
13.3286	6.53849
13.2944	6.50197
13.2604	6.5681
13.2266	6.6302
13.193	6.58974
13.1595	6.45226
13.1262	6.20024
13.093	6.26802
13.06	6.58859
13.0272	6.87212
12.9946	7.13483
12.9621	7.33128
12.9298	7.21425
12.8976	7.38795
12.8656	7.83304
12.8337	8.03092
12.8021	8.17222
12.7705	8.55159
12.7391	8.79134
12.7079	8.97929
12.6769	9.07328
12.6459	9.41026
12.6152	9.77207
12.5845	9.95576
12.5541	10.3479
12.5238	10.7248
12.4936	11.0212
12.4635	11.3991
12.4337	11.8164
12.4039	12.3498
12.3743	12.9255
12.3448	13.3888
12.3155	13.7834
12.2863	14.4347
12.2573	15.1324
12.2284	15.8297
12.1996	16.5735
12.171	17.2608
12.1425	18.2889
12.1141	19.5243
12.0859	20.6922
12.0578	21.8733
12.0298	23.1672
12.0019	24.3095
11.9742	25.0776
11.9466	25.5429
11.9192	25.6004
11.8918	25.0771
11.8646	24.3222
11.8375	23.6486
11.8106	23.2972
11.7837	23.4184
11.757	23.9903
11.7304	24.9311
11.7039	26.212
11.6776	27.348
11.6513	28.0229
11.6252	28.4511
11.5992	28.6025
11.5733	28.3277
11.5475	27.4934
11.5219	26.2228
11.4963	24.7406
11.4709	22.8954
11.4455	20.7259
11.4203	18.2129
11.3952	15.4666
11.3702	12.5336
11.3454	9.88731
11.3206	7.95799
11.2959	6.8298
11.2714	6.45864
11.2469	6.73046
11.2226	7.38868
11.1983	8.53129
11.1742	10.129
11.1502	12.0514
11.1263	14.3163
11.1024	17.0512
11.0787	20.1396
11.0551	23.2313
11.0316	26.0933
11.0081	28.4715
10.9848	30.1274
10.9616	31.2304
10.9385	31.9496
10.9154	32.4136
10.8925	32.5888
10.8697	32.7059
10.8469	32.6351
10.8243	32.5027
10.8017	32.3128
10.7793	32.1251
10.7569	32.0976
10.7346	32.4523
10.7125	33.1094
10.6904	33.9859
10.6684	34.799
10.6465	35.3358
10.6247	35.689
10.6029	35.8335
10.5813	35.9975
10.5597	36.0546
10.5383	36.0425
10.5169	36.3663
10.4956	36.913
10.4744	37.7568
10.4533	38.8007
10.4323	39.7879
10.4113	40.7499
10.3904	41.6387
10.3697	42.4434
10.349	42.943
10.3284	42.9754
10.3078	42.7834
10.2874	42.4297
10.267	41.9387
10.2467	41.3925
10.2265	40.8285
10.2064	40.2637
10.1863	39.5751
10.1663	38.8411
10.1464	37.9294
10.1266	36.8637
10.1069	35.7325
10.0872	34.4466
10.0676	32.9774
10.0481	31.1623
10.0287	29.177
10.0093	27.1275
9.99005	24.8931
9.97084	22.6189
9.95169	20.3537
9.93263	18.2537
9.91364	16.4537
9.89472	15.0039
9.87587	13.6974
9.8571	12.2912
9.83839	10.8753
9.81976	9.60465
9.80119	8.47027
9.78271	7.48486
9.76428	6.42804
9.74592	5.42556
9.72764	4.63234
9.70943	3.97976
9.69128	3.52364
9.6732	3.0495
9.65518	2.49268
9.63724	1.99574
9.61935	1.67783
9.60155	1.35837
9.5838	1.11266
9.56611	0.864008
9.5485	0.686014
9.53094	0.637516
9.51345	0.553843
9.49604	0.5209
9.47867	0.586441
9.46137	0.40891
9.44414	0.217201
9.42697	0.11464
9.40986	0.0465151
9.39281	0.0771959
9.37583	0.0564529
9.35891	0.115231
9.34204	0.12503
9.32524	0.140392
9.3085	0.161506
9.29182	0.172005
9.27519	0.171709
9.25863	0.0758651
9.24213	-0.00999554
9.22568	0.0963967
9.2093	0.246856
9.19297	0.273919
9.17669	0.206558
9.16048	0.189906
9.14433	0.146284
9.12823	0.249933
9.11218	0.434195
9.0962	0.33535
9.08027	0.184702
9.06439	0.347352
9.04858	0.626052
9.03281	0.503696
9.0171	0.342713
9.00145	0.534595
8.98585	0.613029
8.9703	0.519694
8.9548	0.547184
8.93937	0.604715
8.92398	0.660293
8.90865	0.786485
8.89337	0.949855
8.87814	0.790789
8.86296	0.639731
8.84784	0.652816
8.83277	0.774303
8.81774	0.853523
8.80277	0.92501
8.78786	0.954656
8.77298	1.06277
8.75816	1.14261
8.7434	1.29059
8.72868	1.32073
8.714	1.33657
8.69938	1.4015
8.68481	1.40085
8.67029	1.43442
8.65581	1.52961
8.64139	1.68399
8.62701	1.80906
8.61268	1.86788
8.5984	1.99512
8.58416	1.91413
8.56997	1.70155
8.55583	1.76549
8.54174	1.99887
8.52769	2.24425
8.51368	2.47006
8.49973	2.57524
8.48582	2.61842
8.47195	2.57083
8.45813	2.54802
8.44436	2.65536
8.43062	2.83202
8.41693	2.88906
8.4033	2.87877
8.3897	2.90157
8.37614	2.88909
8.36264	2.97338
8.34917	2.96218
8.33574	3.0109
8.32236	3.15934
8.30903	3.30975
8.29573	3.35118
8.28248	3.35702
8.26927	3.61737
8.2561	3.73032
8.24298	3.69051
8.2299	3.80189
8.21685	3.84642
8.20385	3.86059
8.19089	4.07369
8.17797	4.25609
8.16509	4.13964
8.15225	4.12514
8.13946	4.18784
8.1267	4.28169
8.11398	4.37264
8.10131	4.56796
8.08867	4.67081
8.07606	4.63354
8.0635	4.7294
8.05099	4.79705
8.0385	4.77573
8.02606	4.88138
8.01366	4.96047
8.00129	4.94728
7.98896	5.01709
7.97667	5.14595
7.96442	5.11398
7.9522	5.03971
7.94002	5.12222
7.92788	5.15014
7.91578	5.07589
7.90371	5.10397
7.89168	5.1224
7.87969	5.18885
7.86773	5.22154
7.85581	5.15104
7.84392	5.13695
7.83207	5.20277
7.82026	5.30631
7.80849	5.35506
7.79674	5.41326
7.78503	5.47043
7.77337	5.43492
7.76173	5.46599
7.75012	5.57823
7.73856	5.69149
7.72703	5.78338
7.71553	5.8024
7.70406	5.81724
7.69263	5.87313
7.68123	5.95349
7.66987	6.08515
7.65855	6.15321
7.64725	6.14975
7.63598	6.15576
7.62475	6.23984
7.61356	6.3773
7.60239	6.42385
7.59126	6.42718
7.58017	6.43433
7.5691	6.39221
7.55806	6.40901
7.54707	6.46419
7.5361	6.49159
7.52516	6.51855
7.51425	6.51176
7.50338	6.48875
7.49253	6.52252
7.48172	6.62507
7.47094	6.66947
7.46019	6.6604
7.44947	6.78356
7.43879	6.93479
7.42813	7.01818
7.4175	7.01308
7.4069	7.01418
7.39634	7.08651
7.3858	7.2314
7.37529	7.31355
7.36482	7.34413
7.35437	7.35937
7.34396	7.42875
7.33357	7.53431
7.32321	7.52319
7.31288	7.53434
7.30258	7.56009
7.29231	7.48634
7.28207	7.47566
7.27185	7.54409
7.26167	7.59763
7.25152	7.57997
7.24139	7.56216
7.23129	7.66534
7.22122	7.77378
7.21117	7.91996
7.20116	7.95363
7.19117	7.91896
7.18121	8.02238
7.17128	8.18851
7.16137	8.20298
7.1515	8.23437
7.14164	8.31131
7.13182	8.31931
7.12203	8.40377
7.11225	8.46112
7.10251	8.55094
7.0928	8.6407
7.08311	8.7562
7.07344	8.88887
7.06381	9.04118
7.0542	9.25348
7.04461	9.47302
7.03506	9.49889
7.02552	9.59364
7.01601	9.58868
7.00653	9.59474
6.99708	9.75844
6.98765	9.8504
6.97824	9.91386
6.96886	10.0629
6.95951	10.3241
6.95018	10.2232
6.94087	10.2137
6.9316	10.3719
6.92234	10.5637
6.91311	10.8919
6.90391	11.085
6.89473	11.1289
6.88557	11.3871
6.87644	11.8394
6.86733	12.6289
6.85824	12.8651
6.84918	12.7087
6.84015	12.9204
6.83114	13.3651
6.82215	13.6403
6.81319	13.7687
6.80424	14.1131
6.79532	14.6996
6.78643	15.0169
6.77756	14.9898
6.76871	14.9792
6.75989	15.0152
6.75109	15.2066
6.74231	15.3922
6.73355	15.5455
6.72482	15.7334
6.71611	15.9451
6.70742	16.0601
6.69875	15.9791
6.69011	16.1501
6.68149	16.546
6.67289	16.6998
6.66431	16.6329
6.65576	16.6799
6.64722	17.2909
6.63871	18.0316
6.63022	17.8485
6.62175	17.487
6.61331	17.5687
6.60488	17.6758
6.59648	17.9092
6.5881	18.1307
6.57974	18.5286
6.5714	18.9672
6.56308	18.7269
6.55478	18.7467
6.54651	18.8675
6.53825	18.9863
6.53001	19.3154
6.5218	19.7743
6.51361	19.7544
6.50544	20.0346
6.49729	21.0159
6.48915	21.2582
6.48104	20.8474
6.47295	20.5796
6.46488	20.3702
6.45683	20.3713
6.4488	20.3905
6.44079	20.5241
6.4328	20.75
6.42482	20.9569
6.41687	21.7542
6.40894	21.4525
6.40103	20.3996
6.39314	20.1457
6.38526	20.1859
6.37741	20.3459
6.36957	20.4918
6.36176	20.2557
6.35396	20.3082
6.34618	20.7587
6.33843	20.4956
6.33069	20.0598
6.32297	20.0421
6.31527	19.9637
6.30758	19.8969
6.29992	19.8131
6.29227	19.7721
6.28465	19.8026
6.27704	19.7788
6.26945	19.7132
6.26188	19.6351
6.25432	19.4829
6.24679	19.2276
6.23927	19.0108
6.23177	18.8514
6.22429	18.6309
6.21683	18.4511
6.20938	18.1869
6.20195	17.7768
6.19454	17.5802
6.18715	17.7427
6.17978	17.2523
6.17242	16.4436
6.16508	16.1413
6.15776	15.8131
6.15045	15.2284
6.14317	14.7941
6.1359	14.2457
6.12864	13.7122
6.12141	13.4471
6.11419	13.2588
6.10699	12.5165
6.0998	11.7036
6.09263	11.0852
6.08549	10.6624
6.07835	10.5467
6.07123	10.2473
6.06413	9.67075
6.05705	9.5279
6.04998	9.60397
6.04293	8.88851
6.0359	8.22846
6.02888	7.96049
6.02187	7.7516
6.01489	7.53812
6.00792	7.27236
6.00096	7.05627
5.99403	6.99185
5.98711	6.82516
5.9802	6.45413
5.97331	6.26666
5.96644	6.12311
5.95958	5.89935
5.95274	5.81072
5.94591	5.82501
5.9391	6.01777
5.9323	5.94525
5.92552	5.63367
5.91876	5.48844
5.91201	5.46273
5.90528	5.51104
5.89856	5.67954
5.89186	5.61718
5.88517	5.63169
5.8785	5.7215
5.87184	5.67711
5.8652	5.77154
5.85857	5.8197
5.85196	5.86133
5.84536	5.88881
5.83878	5.94176
5.83221	6.09718
5.82566	6.32696
5.81912	6.34853
5.81259	6.1882
5.80608	6.25064
5.79959	6.37895
5.79311	6.44483
5.78665	6.53654
5.78019	6.66069
5.77376	6.90359
5.76734	7.27694
5.76093	7.28557
5.75453	7.29465
5.74815	7.54601
5.74179	7.63941
5.73543	7.72628
5.7291	7.88845
5.72277	8.14306
5.71646	8.36034
5.71017	8.50094
5.70389	8.5821
5.69762	8.72834
5.69136	8.9412
5.68513	9.05055
5.6789	9.20568
5.67268	9.48619
5.66648	9.57755
5.6603	9.79567
5.65413	10.0538
5.64797	10.3256
5.64182	10.5858
5.63569	10.5109
5.62957	10.5189
5.62347	10.5891
5.61737	10.6265
5.61129	10.6678
5.60522	10.7777
5.59917	10.8687
5.59313	10.8485
5.5871	10.9788
5.58109	11.2754
5.57509	11.3244
5.5691	11.1768
5.56312	11.195
5.55716	11.246
5.55121	11.2195
5.54528	11.147
5.53935	11.235
5.53344	11.3613
5.52754	11.4214
5.52166	11.3798
5.51578	11.3582
5.50992	11.359
5.50407	11.3366
5.49823	11.2571
5.49241	11.1813
5.4866	11.1849
5.4808	11.2788
5.47501	11.3424
5.46923	11.4272
5.46347	11.5665
5.45772	11.5535
5.45198	11.5518
5.44625	11.6627
5.44054	11.8497
5.43484	12.0707
5.42914	12.2993
5.42347	12.5821
5.4178	12.7314
5.41214	12.7829
5.4065	12.9129
5.40087	13.0718
5.39525	13.1819
5.38964	13.3179
5.38404	13.5494
5.37846	13.7963
5.37288	14.0634
5.36732	14.2881
5.36177	14.5329
5.35623	14.8327
5.35071	15.164
5.34519	15.3467
5.33968	15.5162
5.33419	15.8099
5.32871	16.1134
5.32324	16.4327
5.31778	16.8931
5.31233	17.4142
5.30689	17.8846
5.30147	18.3576
5.29605	18.9362
5.29065	19.5483
5.28525	20.0863
5.27987	20.6543
5.2745	21.1629
5.26914	21.5986
5.26379	22.0297
5.25845	22.4941
5.25312	22.9365
5.24781	23.2837
5.2425	23.5208
5.23721	23.7597
5.23192	23.967
5.22665	24.228
5.22138	24.4986
5.21613	24.8151
5.21089	24.8597
5.20566	24.8969
5.20044	25.1294
5.19522	25.2256
5.19002	25.2992
5.18483	25.4619
5.17965	25.5695
5.17448	25.6646
5.16933	25.7879
5.16418	25.9153
5.15904	26.0641
5.15391	26.2445
5.14879	26.4157
5.14368	26.6009
5.13859	26.7147
5.1335	26.8552
5.12842	26.9844
5.12335	27.1798
5.1183	27.3359
5.11325	27.4592
5.10821	27.5811
5.10318	27.7649
5.09817	27.8838
5.09316	27.9496
5.08816	28.0501
5.08317	28.2148
5.07819	28.2923
5.07322	28.401
5.06826	28.539
5.06331	28.6351
5.05837	28.6535
5.05344	28.6347
5.04852	28.713
5.04361	28.8744
5.03871	28.9872
5.03382	29.1353
5.02894	29.29
5.02406	29.4583
5.0192	29.5834
5.01435	29.643
5.0095	29.7172
5.00467	29.8191
4.99984	29.9227
4.99502	30.0531
4.99021	30.1711
4.98542	30.3562
4.98063	30.5269
4.97585	30.6079
4.97108	30.7241
4.96632	30.8863
4.96156	31.0482
4.95682	31.1758
4.95209	31.2131
4.94736	31.2798
4.94264	31.3517
4.93794	31.4909
4.93324	31.5954
4.92855	31.6582
4.92387	31.7356
4.9192	31.8357
4.91453	31.863
4.90988	31.9494
4.90524	32.0725
4.9006	32.1209
4.89597	32.2197
4.89135	32.313
4.88674	32.349
4.88214	32.4166
4.87755	32.5332
4.87296	32.6366
4.86839	32.7452
4.86382	32.7832
4.85926	32.812
4.85471	32.89
4.85017	32.9315
4.84564	33.0377
4.84111	33.0975
4.8366	33.1467
4.83209	33.2668
4.82759	33.3737
4.8231	33.4626
4.81862	33.5482
4.81415	33.6518
4.80968	33.7303
4.80522	33.8107
4.80077	33.898
4.79633	33.9676
4.7919	34.03
4.78747	34.0681
4.78306	34.1787
4.77865	34.3247
4.77425	34.4406
4.76986	34.5003
4.76547	34.5672
4.7611	34.6214
4.75673	34.7271
4.75237	34.8577
4.74802	34.9317
4.74367	35.0283
4.73934	35.1058
4.73501	35.1674
4.73069	35.1897
4.72638	35.2154
4.72207	35.2897
4.71777	35.3187
4.71348	35.4242
4.7092	35.4926
4.70493	35.5601
4.70066	35.6037
4.69641	35.5942
4.69216	35.652
4.68791	35.7845
4.68368	35.8822
4.67945	35.9535
4.67523	35.9849
4.67102	35.9276
4.66682	35.9736
4.66262	36.0557
4.65843	36.1409
4.65425	36.2236
4.65007	36.2534
4.64591	36.2869
4.64175	36.3114
4.6376	36.3332
4.63345	36.3984
4.62932	36.4533
4.62519	36.5001
4.62106	36.4714
4.61695	36.4174
4.61284	36.4687
4.60874	36.5716
4.60465	36.6184
4.60056	36.6387
4.59648	36.6819
4.59241	36.7168
4.58835	36.6921
4.58429	36.6626
4.58024	36.7092
4.5762	36.7237
4.57216	36.7354
4.56814	36.7219
4.56411	36.8157
4.5601	36.8187
4.55609	36.7569
4.55209	36.8299
4.5481	36.953
4.54411	36.9635
4.54013	36.9687
4.53616	36.9536
4.5322	36.8957
4.52824	36.8937
4.52429	36.9326
4.52034	36.9049
4.51641	36.9196
4.51247	36.9636
4.50855	36.9721
4.50463	36.9637
4.50072	36.9792
4.49682	36.9941
4.49292	37.0416
4.48903	37.0655
4.48515	37.014
4.48127	37.0311
4.4774	37.0359
4.47354	37.001
4.46968	36.9935
4.46584	36.9375
4.46199	36.8939
4.45815	36.9291
4.45432	36.9473
4.4505	36.9194
4.44668	36.9663
4.44287	37.0249
4.43907	36.9649
4.43527	36.883
4.43148	36.8833
4.4277	36.87
4.42392	36.8296
4.42015	36.8613
4.41638	36.8733
4.41262	36.8344
4.40887	36.8227
4.40513	36.8357
4.40139	36.8418
4.39765	36.8048
4.39393	36.7562
4.39021	36.7714
4.38649	36.7716
4.38278	36.7902
4.37908	36.7965
4.37539	36.7624
4.3717	36.7443
4.36801	36.7293
4.36434	36.6921
4.36067	36.6722
4.357	36.7142
4.35335	36.6736
4.34969	36.6552
4.34605	36.6469
4.34241	36.6542
4.33877	36.6674
4.33514	36.6365
4.33152	36.5829
4.32791	36.5452
4.3243	36.4366
4.32069	36.4098
4.3171	36.4737
4.31351	36.4556
4.30992	36.4241
4.30634	36.3919
4.30277	36.3802
4.2992	36.3512
4.29564	36.2935
4.29208	36.2137
4.28853	36.166
4.28499	36.1832
4.28145	36.1437
4.27792	36.0722
4.27439	36.0401
4.27087	36.0284
4.26735	36.026
4.26384	36.0398
4.26034	36.0073
4.25684	35.9427
4.25335	35.8674
4.24986	35.82
4.24638	35.7993
4.24291	35.75
4.23944	35.6384
4.23598	35.5017
4.23252	35.4804
4.22906	35.481
4.22562	35.4535
4.22218	35.4071
4.21874	35.3253
4.21531	35.3163
4.21189	35.3212
4.20847	35.2706
4.20506	35.2053
4.20165	35.1448
4.19825	35.0972
4.19485	35.1236
4.19146	35.1046
4.18807	34.9956
4.18469	34.9343
4.18132	34.9139
4.17795	34.9091
4.17458	34.8624
4.17123	34.7299
4.16787	34.6891
4.16453	34.7456
4.16118	34.7136
4.15785	34.6261
4.15451	34.5968
4.15119	34.5595
4.14787	34.4935
4.14455	34.474
4.14124	34.5171
4.13794	34.5285
4.13464	34.4144
4.13134	34.2918
4.12805	34.2779
4.12477	34.1628
4.12149	34.0058
4.11822	33.9752
4.11495	34.0008
4.11168	33.9665
4.10843	33.8972
4.10517	33.829
4.10192	33.7276
4.09868	33.6177
4.09545	33.5529
4.09221	33.4556
4.08899	33.3916
4.08576	33.346
4.08255	33.2391
4.07933	33.1302
4.07613	33.0506
4.07292	33.0141
4.06973	32.9893
4.06654	32.899
4.06335	32.8413
4.06017	32.8372
4.05699	32.7798
4.05382	32.6663
4.05065	32.5803
4.04749	32.6015
4.04433	32.5791
4.04118	32.5116
4.03803	32.4495
4.03489	32.4244
4.03175	32.508
4.02862	32.4963
4.02549	32.4512
4.02237	32.4925
4.01925	32.5513
4.01614	32.5621
4.01303	32.5805
4.00993	32.6171
4.00683	32.6453
4.00373	32.69
4.00064	32.7754
3.99756	32.8815
3.99448	32.9803
3.9914	32.9819
3.98833	33.0302
3.98527	33.1241
3.98221	33.2128
3.97915	33.3514
3.9761	33.445
3.97305	33.4852
3.97001	33.5737
3.96697	33.6803
3.96394	33.753
3.96091	33.8189
3.95789	33.8557
3.95487	33.8799
3.95186	34.0166
3.94885	34.1214
3.94584	34.2133
3.94284	34.2854
3.93984	34.3123
3.93685	34.3418
3.93386	34.3547
3.93088	34.3778
3.9279	34.4805
3.92493	34.5392
3.92196	34.5818
3.919	34.654
3.91604	34.6997
3.91308	34.6691
3.91013	34.7408
3.90718	34.8185
3.90424	34.8193
3.9013	34.8181
3.89837	34.8598
3.89544	34.9772
3.89252	35.0223
3.8896	34.9857
3.88668	34.9975
3.88377	34.9899
3.88086	35.0363
3.87796	35.0317
3.87506	35.0115
3.87217	35.0265
3.86928	35.1306
3.86639	35.239
3.86351	35.2333
3.86064	35.1546
3.85776	35.1855
3.8549	35.2826
3.85203	35.3599
3.84917	35.351
3.84631	35.3448
3.84346	35.3436
3.84062	35.3826
3.83777	35.3978
3.83494	35.4577
3.8321	35.4733
3.82927	35.5733
3.82644	35.6573
3.82362	35.6775
3.82081	35.7013
3.81799	35.736
3.81518	35.7517
3.81238	35.7487
3.80958	35.8607
3.80678	36.0166
3.80399	36.0711
3.8012	36.123
3.79841	36.1456
3.79563	36.2341
3.79286	36.2905
3.79008	36.305
3.78731	36.3715
3.78455	36.4426
3.78179	36.5296
3.77903	36.6291
3.77628	36.7409
3.77353	36.8205
3.77079	36.8803
3.76805	36.9607
3.76531	37.1281
3.76258	37.1994
3.75985	37.1787
3.75713	37.2267
3.7544	37.3511
3.75169	37.4412
3.74898	37.5665
3.74627	37.6696
3.74356	37.7548
3.74086	37.8914
3.73816	37.9801
3.73547	38.1017
3.73278	38.2953
3.7301	38.4354
3.72741	38.4767
3.72474	38.5581
3.72206	38.7312
3.71939	38.8247
3.71673	38.8501
3.71406	38.9604
3.71141	39.0714
3.70875	39.1976
3.7061	39.3239
3.70345	39.3652
3.70081	39.4281
3.69817	39.5192
3.69553	39.616
3.6929	39.6969
3.69027	39.8142
3.68765	39.9212
3.68503	39.9892
3.68241	40.0571
3.6798	40.1515
3.67719	40.2321
3.67458	40.2581
3.67198	40.2561
3.66938	40.2387
3.66678	40.3136
3.66419	40.3995
3.66161	40.3768
3.65902	40.3838
3.65644	40.4674
3.65387	40.5098
3.65129	40.4716
3.64872	40.4624
3.64616	40.4946
3.64359	40.5185
3.64103	40.5042
3.63848	40.4827
3.63593	40.4694
3.63338	40.4761
3.63084	40.5092
3.6283	40.4973
3.62576	40.4617
3.62322	40.3802
3.62069	40.2591
3.61817	40.2316
3.61564	40.2279
3.61312	40.1871
3.61061	40.2252
3.6081	40.2592
3.60559	40.122
3.60308	40.0354
3.60058	40.0193
3.59808	40.0064
3.59558	40.0094
3.59309	39.9896
3.59061	39.9168
3.58812	39.8654
3.58564	39.8915
3.58316	39.8558
3.58069	39.8109
3.57822	39.7484
3.57575	39.6926
3.57328	39.7253
3.57082	39.7034
3.56836	39.6489
3.56591	39.6444
3.56346	39.6762
3.56101	39.7266
3.55857	39.7373
3.55613	39.6598
3.55369	39.6166
3.55126	39.6228
3.54883	39.6517
3.5464	39.6075
3.54397	39.5871
3.54155	39.6251
3.53914	39.5803
3.53672	39.6046
3.53431	39.6432
3.5319	39.6395
3.5295	39.5879
3.5271	39.5735
3.5247	39.6332
3.52231	39.7266
3.51991	39.7592
3.51753	39.7346
3.51514	39.7603
3.51276	39.7827
3.51038	39.6833
3.50801	39.6921
3.50563	39.7864
3.50327	39.8618
3.5009	39.9151
3.49854	39.9668
3.49618	40.0283
3.49382	40.0723
3.49147	40.0503
3.48912	40.0586
3.48677	40.1506
3.48443	40.2331
3.48209	40.2395
3.47975	40.2091
3.47742	40.227
3.47509	40.3247
3.47276	40.3621
3.47044	40.409
3.46812	40.462
3.4658	40.5594
3.46348	40.7248
3.46117	40.8255
3.45886	40.7693
3.45656	40.7243
3.45425	40.8108
3.45195	40.8888
3.44966	40.9926
3.44736	41.096
3.44507	41.2419
3.44279	41.2601
3.4405	41.2193
3.43822	41.2855
3.43594	41.3918
3.43367	41.4978
3.43139	41.5899
3.42912	41.5958
3.42686	41.6305
3.42459	41.788
3.42233	41.8478
3.42007	41.905
3.41782	42.011
3.41557	42.0163
3.41332	42.0741
3.41108	42.223
3.40883	42.3029
3.40659	42.364
3.40435	42.4095
3.40212	42.5577
3.39989	42.7765
3.39766	42.8909
3.39544	42.949
3.39322	42.9873
3.391	43.0126
3.38878	43.1407
3.38657	43.2082
3.38436	43.3114
3.38215	43.4513
3.37994	43.5691
3.37774	43.6589
3.37554	43.7011
3.37335	43.8528
3.37115	44.0406
3.36896	44.1479
3.36678	44.2924
3.36459	44.4509
3.36241	44.5027
3.36023	44.5381
3.35805	44.635
3.35588	44.7234
3.35371	44.9196
3.35154	45.0778
3.34938	45.1319
3.34721	45.3312
3.34505	45.4433
3.3429	45.4982
3.34074	45.5766
3.33859	45.6925
3.33644	45.8847
3.3343	46.041
3.33215	46.1203
3.33001	46.1993
3.32788	46.3583
3.32574	46.5291
3.32361	46.6245
3.32148	46.7035
3.31936	46.8231
3.31723	46.9379
3.31511	47.0853
3.31299	47.271
3.31088	47.3738
3.30876	47.4157
3.30665	47.55
3.30455	47.6604
3.30244	47.6518
3.30034	47.7254
3.29824	47.8878
3.29614	48.0133
3.29405	48.0908
3.29196	48.2506
3.28987	48.3953
3.28778	48.3882
3.2857	48.4766
3.28362	48.6702
3.28154	48.7582
3.27946	48.8557
3.27739	48.9148
3.27532	49.0065
3.27325	49.2083
3.27119	49.3486
3.26913	49.3912
3.26707	49.5109
3.26501	49.644
3.26295	49.6306
3.2609	49.6947
3.25885	49.8931
3.2568	50.0121
3.25476	50.0214
3.25272	50.1677
3.25068	50.2886
3.24864	50.291
3.24661	50.3399
3.24458	50.5059
3.24255	50.6483
3.24052	50.7808
3.2385	50.8133
3.23648	50.8418
3.23446	50.9569
3.23244	51.0827
3.23043	51.177
3.22841	51.2585
3.2264	51.3325
3.2244	51.4414
3.22239	51.5489
3.22039	51.5858
3.21839	51.7609
3.2164	51.9408
3.2144	51.9654
3.21241	52.0386
3.21042	52.0464
3.20844	52.1043
3.20645	52.249
3.20447	52.3138
3.20249	52.425
3.20051	52.5202
3.19854	52.5705
3.19657	52.5916
3.1946	52.725
3.19263	52.9221
3.19067	53.0078
3.1887	53.0652
3.18674	53.121
3.18479	53.1418
3.18283	53.2026
3.18088	53.2986
3.17893	53.3806
3.17698	53.4319
3.17504	53.5466
3.17309	53.63
3.17115	53.7537
3.16921	53.8717
3.16728	53.9446
3.16534	54.0275
3.16341	53.9819
3.16148	54.0383
3.15956	54.236
3.15763	54.3714
3.15571	54.4557
3.15379	54.5636
3.15187	54.6196
3.14996	54.603
3.14805	54.7395
3.14614	54.8232
3.14423	54.8266
3.14232	54.9368
3.14042	55.0091
3.13852	55.0611
3.13662	55.0532
3.13472	55.1095
3.13283	55.268
3.13094	55.3654
3.12905	55.4291
3.12716	55.4916
3.12528	55.5302
3.12339	55.626
3.12151	55.7117
3.11964	55.7603
3.11776	55.8628
3.11589	55.89
3.11401	55.8577
3.11214	55.9501
3.11028	56.128
3.10841	56.1804
3.10655	56.254
3.10469	56.3525
3.10283	56.3837
3.10098	56.3654
3.09912	56.4208
3.09727	56.44
3.09542	56.4456
3.09358	56.6068
3.09173	56.7541
3.08989	56.7666
3.08805	56.8366
3.08621	56.8911
3.08437	56.9292
3.08254	57.034
3.08071	57.0239
3.07888	57.0657
3.07705	57.0552
3.07523	57.1086
3.0734	57.3039
3.07158	57.3839
3.06977	57.4293
3.06795	57.483
3.06613	57.543
3.06432	57.5816
3.06251	57.6403
3.0607	57.6293
3.0589	57.5925
3.0571	57.593
3.05529	57.736
3.05349	57.8141
3.0517	57.8521
3.0499	57.8837
3.04811	57.911
3.04632	57.9524
3.04453	58.0438
3.04274	58.1212
3.04096	58.2067
3.03918	58.2516
3.0374	58.2853
3.03562	58.3207
3.03384	58.3717
3.03207	58.3293
3.03029	58.2443
3.02852	58.3332
3.02676	58.3732
3.02499	58.4409
3.02323	58.4945
3.02146	58.4645
3.0197	58.4716
3.01795	58.4987
3.01619	58.5293
3.01444	58.5009
3.01269	58.5011
3.01094	58.4446
3.00919	58.4265
3.00744	58.5933
3.0057	58.6208
3.00396	58.7246
3.00222	58.8219
3.00048	58.7102
2.99875	58.7213
2.99701	58.8219
2.99528	58.8797
2.99355	58.9892
2.99183	59.0429
2.9901	59.0034
2.98838	58.9842
2.98666	59.0369
2.98494	59.0747
2.98322	59.0103
2.9815	59.0307
2.97979	59.0335
2.97808	59.0231
2.97637	59.1134
2.97466	59.2663
2.97295	59.3196
2.97125	59.4298
2.96955	59.4924
2.96785	59.3796
2.96615	59.3494
2.96446	59.4195
2.96276	59.3508
2.96107	59.4138
2.95938	59.5656
2.95769	59.6102
2.95601	59.669
2.95432	59.6195
2.95264	59.4621
2.95096	59.4502
2.94928	59.6898
2.9476	59.8287
2.94593	59.8066
2.94425	59.8255
2.94258	59.8835
2.94092	59.8451
2.93925	59.8237
2.93758	59.8345
2.93592	59.8403
2.93426	59.9406
2.9326	60.0469
2.93094	60.0364
2.92928	60.0069
2.92763	59.9816
2.92598	60.0315
2.92433	60.1554
2.92268	60.1522
2.92103	60.1224
2.91939	60.0076
2.91775	60.0054
2.9161	60.1772
2.91447	60.3393
2.91283	60.3747
2.91119	60.3986
2.90956	60.3259
2.90793	60.1656
2.9063	60.1829
2.90467	60.2655
2.90304	60.3775
2.90142	60.4817
2.89979	60.3268
2.89817	60.1537
2.89656	60.242
2.89494	60.3268
2.89332	60.3262
2.89171	60.3367
2.8901	60.3552
2.88849	60.3944
2.88688	60.4063
2.88527	60.4687
2.88367	60.4721
2.88206	60.4588
2.88046	60.5411
2.87886	60.5723
2.87727	60.6524
2.87567	60.6623
2.87408	60.6987
2.87248	60.8118
2.87089	60.8123
2.8693	60.7304
2.86772	60.7479
2.86613	60.919
2.86455	60.9849
2.86297	60.9264
2.86139	60.8002
2.85981	60.706
2.85823	60.8383
2.85666	61.0759
2.85508	61.0748
2.85351	60.9952
2.85194	60.9712
2.85038	60.989
2.84881	60.8312
2.84724	60.8811
2.84568	60.9466
2.84412	61.0093
2.84256	61.0437
2.841	61.166
2.83945	61.1485
2.83789	61.0749
2.83634	61.0715
2.83479	61.1073
2.83324	60.9898
2.83169	60.8522
2.83015	60.7893
2.82861	60.7512
2.82706	60.6418
2.82552	60.5893
2.82398	60.5308
2.82245	60.5472
2.82091	60.6429
2.81938	60.6652
2.81784	60.48
2.81631	60.3835
2.81479	60.3747
2.81326	60.2531
2.81173	60.1456
2.81021	60.0923
2.80869	60.1721
2.80716	60.1727
2.80565	60.2061
2.80413	60.5921
2.80261	60.6462
2.8011	60.0611
2.79959	59.7287
2.79808	59.7165
2.79657	59.5974
2.79506	59.4938
2.79355	59.4467
2.79205	59.2952
2.79055	59.1312
2.78904	59.3857
2.78754	59.5525
2.78605	58.9436
2.78455	58.1104
2.78306	57.7139
2.78156	57.2753
2.78007	56.6997
2.77858	55.9693
2.77709	55.3799
2.77561	54.8767
2.77412	54.466
2.77264	54.4727
2.77116	54.5288
2.76968	53.8725
2.7682	53.3769
2.76672	52.8018
2.76524	52.0549
2.76377	51.6722
2.7623	50.651
2.76083	48.8327
2.75936	47.2997
2.75789	46.6673
2.75642	47.1817
2.75496	47.1774
2.7535	46.417
2.75203	47.2974
2.75057	48.6431
2.74912	49.8133
2.74766	51.1058
2.7462	52.2504
2.74475	53.076
2.7433	54.1601
2.74185	55.7136
2.7404	56.6482
2.73895	55.8379
2.7375	53.8715
2.73606	52.7188
2.73462	52.0059
2.73318	50.7169
2.73174	49.5479
2.7303	48.8484
2.72886	49.5405
2.72742	51.8809
2.72599	55.3435
2.72456	58.6631
2.72313	60.1223
2.7217	61.9184
2.72027	64.0033
2.71884	63.7032
2.71742	63.4366
2.71599	63.052
2.71457	62.4742
2.71315	62.5437
2.71173	64.6613
2.71032	66.6824
2.7089	67.4213
2.70748	67.8637
2.70607	68.2565
2.70466	68.6966
2.70325	69.2022
2.70184	69.8907
2.70043	70.0381
2.69903	70.0878
2.69762	70.5668
2.69622	71.4745
2.69482	72.5412
2.69342	72.959
2.69202	72.2876
2.69062	72.035
2.68923	72.262
2.68783	72.6084
2.68644	72.9735
2.68505	73.1278
2.68366	73.2434
2.68227	73.115
2.68089	73.2584
2.6795	74.3159
2.67812	74.6727
2.67673	75.0091
2.67535	74.4448
2.67397	73.7426
2.6726	74.1198
2.67122	76.1948
2.66984	76.4211
2.66847	75.1443
2.6671	76.1774
2.66572	76.4743
2.66435	75.5185
2.66299	74.1809
2.66162	74.1185
2.66025	74.3911
2.65889	74.4922
2.65753	74.0258
2.65616	74.2284
2.65481	74.3057
2.65345	74.6096
2.65209	74.6904
2.65073	74.1974
2.64938	73.9842
2.64803	74.1638
2.64667	74.5157
2.64532	74.6965
2.64397	74.4379
2.64263	74.5217
2.64128	74.4282
2.63994	74.2965
2.63859	74.3355
2.63725	74.3913
2.63591	74.4226
2.63457	74.9714
2.63323	75.0786
2.6319	75.4288
2.63056	76.6085
2.62923	75.8109
2.62789	75.4306
2.62656	76.1805
2.62523	75.3203
2.6239	74.7946
2.62258	75.0074
2.62125	76.1478
2.61993	76.498
2.6186	75.7902
2.61728	76.6033
2.61596	76.3836
2.61464	75.45
2.61332	75.4591
2.61201	75.3758
2.61069	75.6073
2.60938	75.9005
2.60807	76.0973
2.60675	76.7937
2.60544	77.4878
2.60414	76.7252
2.60283	76.1364
2.60152	75.9565
2.60022	75.6643
2.59891	75.4592
2.59761	75.8928
2.59631	77.681
2.59501	79.9063
2.59371	78.4464
2.59242	76.2934
2.59112	75.8399
2.58983	76.1049
2.58853	76.5293
2.58724	76.886
2.58595	76.5509
2.58466	77.1332
2.58338	77.2617
2.58209	76.4763
2.5808	76.4033
2.57952	75.9832
2.57824	76.221
2.57695	76.7044
2.57567	76.4137
2.5744	76.7731
2.57312	77.1608
2.57184	76.3765
2.57057	76.7093
2.56929	76.9599
2.56802	76.3556
2.56675	76.0608
2.56548	76.5458
2.56421	77.2282
2.56294	77.5198
2.56168	77.5565
2.56041	77.052
2.55915	76.4674
2.55789	76.2881
2.55662	76.2436
2.55536	76.2162
2.5541	76.4402
2.55285	76.8082
2.55159	76.7471
2.55034	76.5914
2.54908	76.5475
2.54783	76.5984
2.54658	76.5338
2.54533	76.571
2.54408	76.7703
2.54283	76.8962
2.54159	76.5752
2.54034	76.392
2.5391	76.4604
2.53785	76.5768
2.53661	76.6641
2.53537	76.7078
2.53413	76.6308
2.53289	76.7679
2.53166	76.8331
2.53042	76.6338
2.52919	76.6329
2.52795	76.7818
2.52672	76.8365
2.52549	76.824
2.52426	76.8967
2.52303	76.8716
2.52181	76.7768
2.52058	76.8176
2.51936	76.8714
2.51813	76.879
2.51691	76.9544
2.51569	77.0028
2.51447	76.9804
2.51325	76.9161
2.51203	76.9307
2.51082	76.9067
2.5096	76.932
2.50839	77.0283
2.50717	77.0495
2.50596	77.0888
2.50475	77.1187
2.50354	77.13
2.50233	77.0864
2.50113	77.0631
2.49992	77.16
2.49872	77.1848
2.49751	77.0954
2.49631	77.0612
2.49511	77.1003
2.49391	77.1519
2.49271	77.1812
2.49151	77.223
2.49031	77.2098
2.48912	77.2059
2.48792	77.3101
2.48673	77.474
2.48554	77.5022
2.48435	77.5077
2.48316	77.4848
2.48197	77.3744
2.48078	77.4261
2.4796	77.4891
2.47841	77.5713
2.47723	77.5171
2.47604	77.5559
2.47486	77.5901
2.47368	77.5709
2.4725	77.5473
2.47132	77.5536
2.47014	77.6455
2.46897	77.6723
2.46779	77.6185
2.46662	77.6409
2.46545	77.7921
2.46427	77.8627
2.4631	77.8533
2.46193	77.8451
2.46077	77.8232
2.4596	77.864
2.45843	77.9372
2.45727	77.9683
2.4561	77.9857
2.45494	77.9388
2.45378	77.8593
2.45262	77.8878
2.45146	77.9511
2.4503	77.9477
2.44914	77.9713
2.44799	77.9862
2.44683	77.9793
2.44568	78.0321
2.44452	78.0541
2.44337	78.1521
2.44222	78.2798
2.44107	78.2662
2.43992	78.2361
2.43877	78.2242
2.43763	78.1069
2.43648	78.1102
2.43534	78.1951
2.43419	78.1943
2.43305	78.1587
2.43191	78.168
2.43077	78.1957
2.42963	78.156
2.42849	78.1243
2.42736	78.1815
2.42622	78.3542
2.42509	78.4282
2.42395	78.3894
2.42282	78.3428
2.42169	78.2836
2.42056	78.2896
2.41943	78.3973
2.4183	78.4839
2.41717	78.4794
2.41605	78.4576
2.41492	78.3189
2.4138	78.2577
2.41267	78.3715
2.41155	78.5021
2.41043	78.5206
2.40931	78.5083
2.40819	78.597
2.40707	78.5742
2.40595	78.5055
2.40484	78.5181
2.40372	78.6316
2.40261	78.7799
2.4015	78.8141
2.40039	78.6288
2.39928	78.6006
2.39817	78.7028
2.39706	78.7121
2.39595	78.7007
2.39484	78.6325
2.39374	78.6518
2.39263	78.69
2.39153	78.6762
2.39043	78.6455
2.38932	78.7369
2.38822	78.7198
2.38712	78.67
2.38603	78.6138
2.38493	78.6876
2.38383	78.7994
2.38274	78.8336
2.38164	78.8031
2.38055	78.8121
2.37946	78.7535
2.37836	78.6483
2.37727	78.7064
2.37618	78.8385
2.3751	78.7826
2.37401	78.7072
2.37292	78.7798
2.37184	78.8319
2.37075	78.7931
2.36967	78.7396
2.36859	78.7517
2.3675	78.6957
2.36642	78.6885
2.36534	78.8478
2.36427	78.9579
2.36319	78.8599
2.36211	78.85
2.36104	78.8678
2.35996	78.9178
2.35889	78.907
2.35781	78.8075
2.35674	78.8662
2.35567	78.9852
2.3546	78.9114
2.35353	78.8574
2.35247	78.838
2.3514	78.821
2.35033	78.8195
2.34927	78.8324
2.3482	78.9679
2.34714	79.0488
2.34608	79.0758
2.34502	79.0902
2.34396	79.0195
2.3429	79.098
2.34184	79.181
2.34078	79.1797
2.33973	79.2933
2.33867	79.3816
2.33762	79.3399
2.33656	79.1792
2.33551	79.1174
2.33446	79.2226
2.33341	79.2642
2.33236	79.2819
2.33131	79.2895
2.33026	79.2893
2.32922	79.307
2.32817	79.4129
2.32712	79.4415
2.32608	79.4796
2.32504	79.4283
2.324	79.4373
2.32295	79.5286
2.32191	79.5814
2.32087	79.5991
2.31984	79.6031
2.3188	79.6962
2.31776	79.6072
2.31673	79.5176
2.31569	79.6668
2.31466	79.7373
2.31362	79.675
2.31259	79.5713
2.31156	79.4784
2.31053	79.5647
2.3095	79.707
2.30847	79.8003
2.30745	79.8566
2.30642	79.706
2.3054	79.7367
2.30437	79.9012
2.30335	79.8843
2.30232	79.8651
2.3013	79.8222
2.30028	79.8288
2.29926	79.9119
2.29824	79.9632
2.29722	79.9872
2.29621	79.9461
2.29519	79.8612
2.29417	79.9155
2.29316	79.9685
2.29215	80.0335
2.29113	80.0581
2.29012	79.9873
2.28911	79.9811
2.2881	79.9398
2.28709	79.958
2.28608	80.0661
2.28507	80.1891
2.28407	80.2371
2.28306	80.2202
2.28206	80.1946
2.28105	80.1588
2.28005	80.1229
2.27905	80.0941
2.27805	80.0887
2.27705	80.1489
2.27605	80.2127
2.27505	80.1386
2.27405	79.9569
2.27305	80.0422
2.27206	80.2507
2.27106	80.1898
2.27007	80.2523
2.26907	80.3253
2.26808	80.2995
2.26709	80.2616
2.2661	80.2681
2.26511	80.2726
2.26412	80.279
2.26313	80.2409
2.26214	80.2553
2.26116	80.2737
2.26017	80.2726
2.25919	80.3177
2.2582	80.3523
2.25722	80.4297
2.25624	80.4171
2.25526	80.487
2.25428	80.4828
2.2533	80.3861
2.25232	80.4961
2.25134	80.6468
2.25036	80.6492
2.24939	80.507
2.24841	80.4137
2.24744	80.3684
2.24646	80.5138
2.24549	80.6274
2.24452	80.6383
2.24355	80.6916
2.24257	80.6517
2.24161	80.6923
2.24064	80.7459
2.23967	80.7109
2.2387	80.6775
2.23774	80.5821
2.23677	80.5613
2.23581	80.6245
2.23484	80.7618
2.23388	80.832
2.23292	80.8045
2.23196	80.8151
2.231	80.8472
2.23004	80.8739
2.22908	80.8384
2.22812	80.828
2.22716	80.7799
2.22621	80.6015
2.22525	80.5943
2.2243	80.7724
2.22334	80.8547
2.22239	80.8794
2.22144	80.7708
2.22049	80.8017
2.21953	80.9287
2.21859	81.0285
2.21764	80.9566
2.21669	80.9053
2.21574	81.0073
2.21479	81.0221
2.21385	80.966
2.2129	80.8457
2.21196	80.8092
2.21102	80.9758
2.21007	81.1397
2.20913	81.2397
2.20819	81.1633
2.20725	81.0296
2.20631	81.003
2.20537	81.0056
2.20444	81.0647
2.2035	81.0296
2.20256	81.0786
2.20163	81.2317
2.20069	81.3177
2.19976	81.2511
2.19883	81.1516
2.19789	81.1036
2.19696	81.0757
2.19603	81.0738
2.1951	81.131
2.19417	81.2195
2.19325	81.1829
2.19232	81.1517
2.19139	81.183
2.19047	81.2458
2.18954	81.2632
2.18862	81.2192
2.18769	81.2079
2.18677	81.3401
2.18585	81.5066
2.18493	81.6055
2.18401	81.5718
2.18309	81.5086
2.18217	81.5467
2.18125	81.5709
2.18033	81.6724
2.17942	81.5507
2.1785	81.5544
2.17759	81.6722
2.17667	81.8298
2.17576	81.8147
2.17485	81.6126
2.17393	81.5749
2.17302	81.5962
2.17211	81.6437
2.1712	81.7527
2.17029	81.6797
2.16939	81.7699
2.16848	81.763
2.16757	81.9016
2.16667	81.8972
2.16576	81.7231
2.16486	81.7218
2.16395	81.7738
2.16305	81.8241
2.16215	81.9352
2.16125	81.9467
2.16035	81.9055
2.15945	82.0153
2.15855	82.0787
2.15765	82.0377
2.15675	81.9688
2.15586	81.9269
2.15496	81.9684
2.15406	82.127
2.15317	82.1925
2.15228	82.1808
2.15138	82.1133
2.15049	82.0421
2.1496	82.117
2.14871	81.9785
2.14782	81.969
2.14693	82.0245
2.14604	82.0953
2.14515	82.1596
2.14427	82.1808
2.14338	82.2467
2.14249	82.3204
2.14161	82.3877
2.14072	82.3416
2.13984	82.289
2.13896	82.3313
2.13808	82.4127
2.13719	82.4497
2.13631	82.3396
2.13543	82.3001
2.13455	82.344
2.13368	82.4534
2.1328	82.5564
2.13192	82.4653
2.13105	82.429
2.13017	82.5957
2.1293	82.5963
2.12842	82.4784
2.12755	82.4913
2.12668	82.5304
2.1258	82.4414
2.12493	82.5072
2.12406	82.5256
2.12319	82.6745
2.12232	82.8743
2.12145	82.951
2.12059	82.5876
2.11972	82.4403
2.11885	82.5997
2.11799	82.6521
2.11712	82.6111
2.11626	82.5451
2.1154	82.5284
2.11453	82.6185
2.11367	82.8481
2.11281	82.9278
2.11195	82.9162
2.11109	82.9169
2.11023	82.806
2.10937	82.6135
2.10851	82.6218
2.10766	82.8074
2.1068	82.8218
2.10594	82.7266
2.10509	82.598
2.10423	82.5761
2.10338	82.8816
2.10253	82.9159
2.10168	82.9278
2.10082	83.0409
2.09997	82.8933
2.09912	82.8102
2.09827	82.9563
2.09742	82.9453
2.09658	82.9672
2.09573	83.0456
2.09488	82.9086
2.09404	82.9079
2.09319	83.1526
2.09235	83.1279
2.0915	82.9086
2.09066	82.695
2.08982	82.7219
2.08897	82.8739
2.08813	82.9481
2.08729	83.1605
2.08645	83.1899
2.08561	83.1687
2.08477	83.088
2.08394	82.8983
2.0831	82.9485
2.08226	83.2036
2.08143	83.1986
2.08059	83.0157
2.07976	83.0826
2.07892	83.1081
2.07809	83.1426
2.07726	83.1831
2.07643	83.2828
2.07559	83.2485
2.07476	83.2956
2.07393	83.3809
2.0731	83.223
2.07228	83.1696
2.07145	83.5602
2.07062	83.4507
2.06979	83.1649
2.06897	83.2562
2.06814	83.2681
2.06732	83.2538
2.06649	83.5983
2.06567	83.6211
2.06485	83.2022
2.06403	82.8451
2.0632	83.0616
2.06238	83.0148
2.06156	82.9711
2.06074	83.069
2.05993	83.0849
2.05911	83.3128
2.05829	83.5319
2.05747	83.4313
2.05666	83.2372
2.05584	83.2508
2.05503	83.3429
2.05421	83.466
2.0534	83.4755
2.05259	83.4202
2.05177	83.2245
2.05096	83.1617
2.05015	83.32
2.04934	83.4292
2.04853	83.4998
2.04772	83.3571
2.04691	83.237
2.04611	83.3332
2.0453	83.4655
2.04449	83.3012
2.04369	83.1939
2.04288	83.3115
2.04208	83.4889
2.04127	83.5254
2.04047	83.3594
2.03967	83.4456
2.03886	83.634
2.03806	83.4509
2.03726	83.351
2.03646	83.4557
2.03566	83.4554
2.03486	83.6249
2.03407	83.763
2.03327	83.6477
2.03247	83.3982
2.03167	83.6382
2.03088	83.7501
2.03008	83.559
2.02929	83.5493
2.0285	83.4086
2.0277	83.1815
2.02691	83.314
2.02612	83.4427
2.02533	83.3159
2.02453	83.4556
2.02374	83.6751
2.02295	83.6192
2.02217	83.6405
2.02138	83.8414
2.02059	83.7311
2.0198	83.5364
2.01902	83.6514
2.01823	83.7591
2.01744	83.5834
2.01666	83.5319
2.01588	83.6739
2.01509	83.7405
2.01431	83.6934
2.01353	83.6346
2.01275	83.6803
2.01196	83.8337
2.01118	84.0199
2.0104	83.9573
2.00963	83.9578
2.00885	84.0832
2.00807	83.8604
2.00729	83.4258
2.00651	83.5507
2.00574	83.6092
2.00496	83.6035
2.00419	83.7334
2.00341	83.5156
2.00264	83.5915
2.00187	83.8434
2.00109	83.9594
2.00032	83.8865
