Name: Garnetiferous Mica Schist
Type: Rock
Class: Metamorphic
Subclass:  Schist 
Particle Size: Solid surface
Sample No.: Ward84.txt
Owner: JPL
Wavelength range:  VNIR SWIR IR 
Origin: Ward's Collection of American Rocks.  Sample locality - Gassets, Windsor County, Vermont.  Collected by - JPL.
Collected by:  Ward's Natural Science
Description: The hand specimen is a porphyroblastic, schistose rock
composed of scaly, silvery mica, quartz and garnet with biotite and
some staurolite and occasional kyanite. Geologic age - Upper Cambrian(?)


Measurement: Hemispherical reflectance
First Column: X
Second Column: Y
X Units: Wavelength (micrometers)
Y Units: Reflectance (percent)
First X Value: 2.500
Last X Value: 0.400
Number of X Values: 2101
Additional information: None

2.500  21.251457
2.499  20.949804
2.498  21.065750
2.497  21.232747
2.496  20.643315
2.495  21.050253
2.494  20.840516
2.493  20.915905
2.492  20.792809
2.491  20.988056
2.490  20.802698
2.489  20.865649
2.488  20.706043
2.487  20.975390
2.486  20.653816
2.485  20.682997
2.484  20.629343
2.483  20.725093
2.482  20.722647
2.481  20.737300
2.480  20.694526
2.479  20.595363
2.478  20.521307
2.477  20.579863
2.476  20.379190
2.475  20.517198
2.474  20.386823
2.473  20.490974
2.472  20.421441
2.471  20.540918
2.470  20.252181
2.469  20.411490
2.468  20.211629
2.467  20.391625
2.466  20.030066
2.465  20.175458
2.464  20.068364
2.463  20.123085
2.462  19.927894
2.461  19.943778
2.460  19.904913
2.459  19.928276
2.458  19.866184
2.457  19.841269
2.456  19.677233
2.455  19.811230
2.454  19.586266
2.453  19.719170
2.452  19.653899
2.451  19.568428
2.450  19.565496
2.449  19.500995
2.448  19.513875
2.447  19.547007
2.446  19.331103
2.445  19.510409
2.444  19.374738
2.443  19.411008
2.442  19.289180
2.441  19.380573
2.440  19.211209
2.439  19.329866
2.438  19.224492
2.437  19.266733
2.436  19.252958
2.435  19.344979
2.434  19.233770
2.433  19.358295
2.432  19.312140
2.431  19.383926
2.430  19.291769
2.429  19.414257
2.428  19.350214
2.427  19.440932
2.426  19.421409
2.425  19.523957
2.424  19.551443
2.423  19.604480
2.422  19.568731
2.421  19.716447
2.420  19.671375
2.419  19.771108
2.418  19.787982
2.417  19.879214
2.416  19.940841
2.415  19.984741
2.414  20.035757
2.413  20.118500
2.412  20.120694
2.411  20.232345
2.410  20.174588
2.409  20.203655
2.408  20.255713
2.407  20.340102
2.406  20.358472
2.405  20.468369
2.404  20.435226
2.403  20.469693
2.402  20.473826
2.401  20.557167
2.400  20.528040
2.399  20.567174
2.398  20.606718
2.397  20.628556
2.396  20.604606
2.395  20.649890
2.394  20.638945
2.393  20.720334
2.392  20.710678
2.391  20.721425
2.390  20.694687
2.389  20.707102
2.388  20.725465
2.387  20.724348
2.386  20.716443
2.385  20.779359
2.384  20.714137
2.383  20.782962
2.382  20.759200
2.381  20.749920
2.380  20.762551
2.379  20.806799
2.378  20.766881
2.377  20.812165
2.376  20.798213
2.375  20.779821
2.374  20.796353
2.373  20.813195
2.372  20.817735
2.371  20.811113
2.370  20.803262
2.369  20.830291
2.368  20.772045
2.367  20.759223
2.366  20.775714
2.365  20.797769
2.364  20.802530
2.363  20.813173
2.362  20.818015
2.361  20.794731
2.360  20.788875
2.359  20.763113
2.358  20.724679
2.357  20.752577
2.356  20.728789
2.355  20.706018
2.354  20.678779
2.353  20.626593
2.352  20.603693
2.351  20.604631
2.350  20.602264
2.349  20.632876
2.348  20.653005
2.347  20.662692
2.346  20.626414
2.345  20.542020
2.344  20.607714
2.343  20.615732
2.342  20.638446
2.341  20.676612
2.340  20.716147
2.339  20.752490
2.338  20.775676
2.337  20.868537
2.336  20.959497
2.335  20.956724
2.334  21.060852
2.333  21.113057
2.332  21.153676
2.331  21.245079
2.330  21.409597
2.329  21.483844
2.328  21.602890
2.327  21.647950
2.326  21.764991
2.325  21.877336
2.324  21.983004
2.323  22.043052
2.322  22.151933
2.321  22.264450
2.320  22.431787
2.319  22.539085
2.318  22.656786
2.317  22.710289
2.316  22.880018
2.315  22.986692
2.314  23.091718
2.313  23.234306
2.312  23.399823
2.311  23.463103
2.310  23.615982
2.309  23.697976
2.308  23.826739
2.307  23.931651
2.306  24.107673
2.305  24.245443
2.304  24.370795
2.303  24.451568
2.302  24.571308
2.301  24.640249
2.300  24.809192
2.299  24.891807
2.298  24.972039
2.297  25.039682
2.296  25.194338
2.295  25.275987
2.294  25.362144
2.293  25.449834
2.292  25.501708
2.291  25.546575
2.290  25.601318
2.289  25.648910
2.288  25.790185
2.287  25.751179
2.286  25.848574
2.285  25.809306
2.284  25.853924
2.283  25.937396
2.282  25.975627
2.281  25.986617
2.280  26.018304
2.279  26.018757
2.278  26.041953
2.277  25.970764
2.276  26.031879
2.275  25.930999
2.274  25.982953
2.273  25.946733
2.272  25.957000
2.271  25.936395
2.270  25.967718
2.269  25.876113
2.268  25.913415
2.267  25.802254
2.266  25.791651
2.265  25.652110
2.264  25.726754
2.263  25.565499
2.262  25.585759
2.261  25.431354
2.260  25.473768
2.259  25.242673
2.258  25.286484
2.257  25.167930
2.256  25.073928
2.255  24.976509
2.254  24.914658
2.253  24.815215
2.252  24.777658
2.251  24.558260
2.250  24.563793
2.249  24.463796
2.248  24.442732
2.247  24.229482
2.246  24.235082
2.245  24.153671
2.244  24.114545
2.243  23.966851
2.242  23.868752
2.241  23.737043
2.240  23.806830
2.239  23.649498
2.238  23.677449
2.237  23.570544
2.236  23.485615
2.235  23.292003
2.234  23.299442
2.233  23.223304
2.232  23.050837
2.231  22.965070
2.230  22.839343
2.229  22.702051
2.228  22.722958
2.227  22.555283
2.226  22.417254
2.225  22.160957
2.224  22.165335
2.223  21.893497
2.222  21.771673
2.221  21.584835
2.220  21.405839
2.219  21.150052
2.218  21.058315
2.217  20.807383
2.216  20.662900
2.215  20.426255
2.214  20.348098
2.213  20.061141
2.212  20.039482
2.211  19.519932
2.210  19.702137
2.209  19.283147
2.208  19.271648
2.207  19.102471
2.206  19.022531
2.205  18.899662
2.204  18.811961
2.203  18.672717
2.202  18.684948
2.201  18.585343
2.200  18.640502
2.199  18.523704
2.198  18.556682
2.197  18.574004
2.196  18.658116
2.195  18.595850
2.194  18.851450
2.193  18.794569
2.192  19.053335
2.191  19.050354
2.190  19.312240
2.189  19.414664
2.188  19.676520
2.187  19.832861
2.186  20.203976
2.185  20.347261
2.184  20.641748
2.183  20.810200
2.182  21.218689
2.181  21.435952
2.180  21.748861
2.179  22.024360
2.178  22.334352
2.177  22.536361
2.176  22.929516
2.175  23.160372
2.174  23.562628
2.173  23.758144
2.172  24.077344
2.171  24.224438
2.170  24.536723
2.169  24.786875
2.168  25.076398
2.167  25.244649
2.166  25.578011
2.165  25.672389
2.164  25.973582
2.163  26.088099
2.162  26.352745
2.161  26.465573
2.160  26.664208
2.159  26.808641
2.158  26.985224
2.157  27.123719
2.156  27.312258
2.155  27.318349
2.154  27.483923
2.153  27.514997
2.152  27.738413
2.151  27.712447
2.150  27.830324
2.149  27.871968
2.148  27.942848
2.147  27.953789
2.146  28.053948
2.145  28.049510
2.144  28.183710
2.143  28.155313
2.142  28.268500
2.141  28.229081
2.140  28.369472
2.139  28.290850
2.138  28.328537
2.137  28.322623
2.136  28.391748
2.135  28.342243
2.134  28.395146
2.133  28.371213
2.132  28.346145
2.131  28.308972
2.130  28.314641
2.129  28.295276
2.128  28.360952
2.127  28.283453
2.126  28.288051
2.125  28.235968
2.124  28.301128
2.123  28.187890
2.122  28.239355
2.121  28.226988
2.120  28.235313
2.119  28.202889
2.118  28.197338
2.117  28.194765
2.116  28.240335
2.115  28.209209
2.114  28.276387
2.113  28.199417
2.112  28.248400
2.111  28.290800
2.110  28.304824
2.109  28.307876
2.108  28.389420
2.107  28.371216
2.106  28.416676
2.105  28.451736
2.104  28.548930
2.103  28.540909
2.102  28.596556
2.101  28.621630
2.100  28.635363
2.099  28.706797
2.098  28.812703
2.097  28.836779
2.096  28.912827
2.095  28.982909
2.094  29.027381
2.093  29.057089
2.092  29.140961
2.091  29.191783
2.090  29.238651
2.089  29.221079
2.088  29.313344
2.087  29.384257
2.086  29.430104
2.085  29.464851
2.084  29.513635
2.083  29.544714
2.082  29.565955
2.081  29.558473
2.080  29.616926
2.079  29.637156
2.078  29.663350
2.077  29.686220
2.076  29.666971
2.075  29.710045
2.074  29.751235
2.073  29.742696
2.072  29.728259
2.071  29.759049
2.070  29.802579
2.069  29.782284
2.068  29.784791
2.067  29.815513
2.066  29.800446
2.065  29.815301
2.064  29.799171
2.063  29.845410
2.062  29.838494
2.061  29.820441
2.060  29.891452
2.059  29.866969
2.058  29.820012
2.057  29.856832
2.056  29.858430
2.055  29.847025
2.054  29.834522
2.053  29.870622
2.052  29.858188
2.051  29.850386
2.050  29.827329
2.049  29.818979
2.048  29.824577
2.047  29.882015
2.046  29.896145
2.045  29.921528
2.044  29.902967
2.043  29.917336
2.042  29.886187
2.041  29.867694
2.040  29.875434
2.039  29.913663
2.038  29.894647
2.037  29.921584
2.036  29.893699
2.035  29.912209
2.034  29.910653
2.033  29.935298
2.032  29.904073
2.031  29.906203
2.030  29.889096
2.029  29.927007
2.028  29.912906
2.027  29.962404
2.026  29.940691
2.025  29.922181
2.024  29.922570
2.023  29.956589
2.022  29.936364
2.021  29.939114
2.020  29.898379
2.019  29.914235
2.018  29.907853
2.017  29.934626
2.016  29.919721
2.015  30.005151
2.014  29.955583
2.013  30.007476
2.012  30.009399
2.011  29.998735
2.010  29.940562
2.009  29.956347
2.008  29.886509
2.007  30.040828
2.006  29.923905
2.005  29.959259
2.004  29.926553
2.003  29.954045
2.002  29.943023
2.001  29.986860
2.000  29.949555
1.999  30.011195
1.998  29.909552
1.997  29.986846
1.996  29.932983
1.995  29.928356
1.994  29.953467
1.993  29.978188
1.992  29.914617
1.991  30.001245
1.990  29.961995
1.989  30.012357
1.988  30.017101
1.987  30.060258
1.986  29.938141
1.985  30.013325
1.984  29.959966
1.983  30.088128
1.982  30.011332
1.981  29.966193
1.980  30.028213
1.979  30.051212
1.978  30.036718
1.977  30.037161
1.976  30.084414
1.975  30.112207
1.974  30.091755
1.973  30.190098
1.972  30.055114
1.971  30.194457
1.970  30.114939
1.969  30.170010
1.968  30.106615
1.967  30.222301
1.966  30.138355
1.965  30.254053
1.964  30.186292
1.963  30.318261
1.962  30.188099
1.961  30.320171
1.960  30.273503
1.959  30.321045
1.958  30.317971
1.957  30.377935
1.956  30.377711
1.955  30.463024
1.954  30.343216
1.953  30.500269
1.952  30.465810
1.951  30.519059
1.950  30.482077
1.949  30.542173
1.948  30.490743
1.947  30.645737
1.946  30.597917
1.945  30.641990
1.944  30.679043
1.943  30.694765
1.942  30.658077
1.941  30.762816
1.940  30.668016
1.939  30.801441
1.938  30.718206
1.937  30.824487
1.936  30.815913
1.935  30.871364
1.934  30.831959
1.933  30.928349
1.932  30.877959
1.931  30.973743
1.930  30.912515
1.929  30.950766
1.928  30.875136
1.927  31.091108
1.926  30.784631
1.925  31.045586
1.924  30.955342
1.923  30.993504
1.922  30.899254
1.921  30.939849
1.920  30.857426
1.919  30.954449
1.918  30.803006
1.917  30.896604
1.916  30.807140
1.915  30.858917
1.914  30.722403
1.913  30.774384
1.912  30.773316
1.911  30.736990
1.910  30.750494
1.909  30.676954
1.908  30.563407
1.907  30.639354
1.906  30.672613
1.905  30.722627
1.904  30.675274
1.903  30.661712
1.902  30.628523
1.901  30.593337
1.900  30.515246
1.899  30.505495
1.898  30.480580
1.897  30.562504
1.896  30.381911
1.895  30.379237
1.894  30.354694
1.893  30.460375
1.892  30.336983
1.891  30.377755
1.890  30.341163
1.889  30.313471
1.888  30.253986
1.887  30.350585
1.886  30.255987
1.885  30.297087
1.884  30.230705
1.883  30.221873
1.882  30.251841
1.881  30.262776
1.880  30.143179
1.879  30.182702
1.878  30.283326
1.877  30.304040
1.876  30.212131
1.875  30.403486
1.874  30.311233
1.873  30.417527
1.872  30.362176
1.871  30.363395
1.870  30.347775
1.869  30.349993
1.868  30.296301
1.867  30.238488
1.866  30.152409
1.865  30.173962
1.864  30.110964
1.863  30.169904
1.862  30.073068
1.861  30.122291
1.860  30.073108
1.859  30.080395
1.858  30.011354
1.857  30.058738
1.856  30.032559
1.855  30.054635
1.854  29.975571
1.853  29.982872
1.852  29.955813
1.851  29.967938
1.850  29.926670
1.849  29.973778
1.848  29.887996
1.847  29.927835
1.846  29.887668
1.845  29.880859
1.844  29.879986
1.843  29.893405
1.842  29.828930
1.841  29.931729
1.840  29.841545
1.839  29.880635
1.838  29.860751
1.837  29.816277
1.836  29.795356
1.835  29.860614
1.834  29.847747
1.833  29.818474
1.832  29.785247
1.831  29.798769
1.830  29.823867
1.829  29.862053
1.828  29.812313
1.827  29.817761
1.826  29.795577
1.825  29.785577
1.824  29.797601
1.823  29.787995
1.822  29.758521
1.821  29.805952
1.820  29.819039
1.819  29.841545
1.818  29.801432
1.817  29.838613
1.816  29.841858
1.815  29.864903
1.814  29.801876
1.813  29.797130
1.812  29.783204
1.811  29.781914
1.810  29.765428
1.809  29.824422
1.808  29.810735
1.807  29.773223
1.806  29.805156
1.805  29.810846
1.804  29.794326
1.803  29.788010
1.802  29.806326
1.801  29.807962
1.800  29.785576
1.799  29.797911
1.798  29.764421
1.797  29.789252
1.796  29.774348
1.795  29.750270
1.794  29.761874
1.793  29.810151
1.792  29.815161
1.791  29.801418
1.790  29.788992
1.789  29.771861
1.788  29.796106
1.787  29.811047
1.786  29.807166
1.785  29.789957
1.784  29.793974
1.783  29.790721
1.782  29.747699
1.781  29.729406
1.780  29.744647
1.779  29.795855
1.778  29.761268
1.777  29.739948
1.776  29.729653
1.775  29.702238
1.774  29.744923
1.773  29.749923
1.772  29.766307
1.771  29.754848
1.770  29.731623
1.769  29.749338
1.768  29.790413
1.767  29.766553
1.766  29.750674
1.765  29.770086
1.764  29.799940
1.763  29.741109
1.762  29.717266
1.761  29.747862
1.760  29.752817
1.759  29.696383
1.758  29.720167
1.757  29.723489
1.756  29.754170
1.755  29.717432
1.754  29.751753
1.753  29.683770
1.752  29.739366
1.751  29.756264
1.750  29.712373
1.749  29.694400
1.748  29.756208
1.747  29.728070
1.746  29.757442
1.745  29.709842
1.744  29.790561
1.743  29.751320
1.742  29.746779
1.741  29.723410
1.740  29.766488
1.739  29.749183
1.738  29.729971
1.737  29.708716
1.736  29.771180
1.735  29.754483
1.734  29.720456
1.733  29.687427
1.732  29.768319
1.731  29.736999
1.730  29.752717
1.729  29.689629
1.728  29.733471
1.727  29.733997
1.726  29.725666
1.725  29.732143
1.724  29.697713
1.723  29.639159
1.722  29.695434
1.721  29.682183
1.720  29.691471
1.719  29.683855
1.718  29.677135
1.717  29.706654
1.716  29.628323
1.715  29.640758
1.714  29.667937
1.713  29.679251
1.712  29.599411
1.711  29.555347
1.710  29.611281
1.709  29.583298
1.708  29.655778
1.707  29.591962
1.706  29.631712
1.705  29.564818
1.704  29.574732
1.703  29.546529
1.702  29.589280
1.701  29.537773
1.700  29.542513
1.699  29.513203
1.698  29.527256
1.697  29.465101
1.696  29.546873
1.695  29.453276
1.694  29.492867
1.693  29.452484
1.692  29.524392
1.691  29.449134
1.690  29.546374
1.689  29.420895
1.688  29.389743
1.687  29.363745
1.686  29.424501
1.685  29.369616
1.684  29.456935
1.683  29.313928
1.682  29.374686
1.681  29.406899
1.680  29.383948
1.679  29.309080
1.678  29.441274
1.677  29.330840
1.676  29.389537
1.675  29.270456
1.674  29.355176
1.673  29.262369
1.672  29.338790
1.671  29.235904
1.670  29.255987
1.669  29.327892
1.668  29.107931
1.667  29.202269
1.666  29.261193
1.665  29.138766
1.664  29.212600
1.663  29.138103
1.662  29.155532
1.661  29.180186
1.660  29.153756
1.659  29.152430
1.658  29.212045
1.657  29.103101
1.656  29.181536
1.655  29.114306
1.654  29.177569
1.653  29.090650
1.652  29.112558
1.651  29.053761
1.650  29.118439
1.649  28.999344
1.648  29.073502
1.647  29.089052
1.646  29.062177
1.645  29.104526
1.644  29.095153
1.643  29.055615
1.642  29.120287
1.641  28.858952
1.640  29.133085
1.639  28.947357
1.638  29.120973
1.637  28.982959
1.636  29.041598
1.635  28.916479
1.634  29.026217
1.633  28.969313
1.632  29.056576
1.631  28.929130
1.630  29.021990
1.629  28.896257
1.628  29.040513
1.627  28.916969
1.626  29.040303
1.625  28.881853
1.624  28.980780
1.623  28.926510
1.622  28.928075
1.621  28.847828
1.620  28.909844
1.619  28.926888
1.618  28.981683
1.617  28.914762
1.616  28.950291
1.615  28.849039
1.614  28.968260
1.613  28.852891
1.612  28.874956
1.611  28.865811
1.610  28.876778
1.609  28.780067
1.608  28.939031
1.607  28.817220
1.606  28.860817
1.605  28.777659
1.604  28.899536
1.603  28.799368
1.602  28.847351
1.601  28.795733
1.600  28.861533
1.599  28.785214
1.598  28.913457
1.597  28.771313
1.596  28.869375
1.595  28.744360
1.594  28.824428
1.593  28.751791
1.592  28.839588
1.591  28.725211
1.590  28.816743
1.589  28.810369
1.588  28.804932
1.587  28.759955
1.586  28.855964
1.585  28.810404
1.584  28.793676
1.583  28.744569
1.582  28.806292
1.581  28.767442
1.580  28.821493
1.579  28.739905
1.578  28.775151
1.577  28.670265
1.576  28.794171
1.575  28.716630
1.574  28.738069
1.573  28.660639
1.572  28.752468
1.571  28.713925
1.570  28.762848
1.569  28.686760
1.568  28.725151
1.567  28.669200
1.566  28.708226
1.565  28.604044
1.564  28.657722
1.563  28.611680
1.562  28.660709
1.561  28.571249
1.560  28.593558
1.559  28.610414
1.558  28.581097
1.557  28.559135
1.556  28.624746
1.555  28.591140
1.554  28.579655
1.553  28.526828
1.552  28.633547
1.551  28.596636
1.550  28.594832
1.549  28.511046
1.548  28.502056
1.547  28.488651
1.546  28.547380
1.545  28.513069
1.544  28.506600
1.543  28.452117
1.542  28.454866
1.541  28.481056
1.540  28.506944
1.539  28.437937
1.538  28.432521
1.537  28.427716
1.536  28.473180
1.535  28.449568
1.534  28.441172
1.533  28.391284
1.532  28.395316
1.531  28.375582
1.530  28.372196
1.529  28.325444
1.528  28.376278
1.527  28.399181
1.526  28.376739
1.525  28.318757
1.524  28.319311
1.523  28.304168
1.522  28.338856
1.521  28.311986
1.520  28.335565
1.519  28.257003
1.518  28.261118
1.517  28.249322
1.516  28.228856
1.515  28.228401
1.514  28.248432
1.513  28.235488
1.512  28.216510
1.511  28.195052
1.510  28.209667
1.509  28.175248
1.508  28.176380
1.507  28.170483
1.506  28.181359
1.505  28.209749
1.504  28.231228
1.503  28.220493
1.502  28.157637
1.501  28.149272
1.500  28.178078
1.499  28.154637
1.498  28.188107
1.497  28.154990
1.496  28.114405
1.495  28.109899
1.494  28.101714
1.493  28.135809
1.492  28.125820
1.491  28.080285
1.490  28.076286
1.489  28.066167
1.488  28.023176
1.487  28.052145
1.486  28.072975
1.485  28.058691
1.484  27.983027
1.483  27.989897
1.482  28.007766
1.481  28.018488
1.480  27.962887
1.479  28.005106
1.478  27.964779
1.477  27.959833
1.476  27.945414
1.475  27.972222
1.474  27.935013
1.473  27.893959
1.472  27.917543
1.471  27.896215
1.470  27.912392
1.469  27.932895
1.468  27.851291
1.467  27.876043
1.466  27.854052
1.465  27.872500
1.464  27.786999
1.463  27.791664
1.462  27.759392
1.461  27.822283
1.460  27.790158
1.459  27.752007
1.458  27.759903
1.457  27.727389
1.456  27.670671
1.455  27.660447
1.454  27.651079
1.453  27.672047
1.452  27.654636
1.451  27.655467
1.450  27.623993
1.449  27.565757
1.448  27.559050
1.447  27.637157
1.446  27.494830
1.445  27.514961
1.444  27.458954
1.443  27.421432
1.442  27.342382
1.441  27.256286
1.440  27.197747
1.439  27.221293
1.438  27.083654
1.437  27.013747
1.436  26.871121
1.435  26.760368
1.434  26.589884
1.433  26.541830
1.432  26.341727
1.431  26.118333
1.430  25.845787
1.429  25.696378
1.428  25.347379
1.427  25.169021
1.426  24.862544
1.425  24.613759
1.424  24.266633
1.423  23.926204
1.422  23.505243
1.421  23.217790
1.420  22.755985
1.419  22.388068
1.418  21.976012
1.417  21.684507
1.416  21.335209
1.415  21.117318
1.414  20.857331
1.413  20.807142
1.412  20.698521
1.411  20.746618
1.410  20.776129
1.409  20.971751
1.408  20.983881
1.407  21.202854
1.406  21.217400
1.405  21.453614
1.404  21.516241
1.403  21.717922
1.402  21.901379
1.401  22.144762
1.400  22.413778
1.399  22.733936
1.398  23.025808
1.397  23.501341
1.396  23.825474
1.395  24.246222
1.394  24.563701
1.393  24.995296
1.392  25.291950
1.391  25.699906
1.390  25.859009
1.389  26.105472
1.388  26.153611
1.387  26.290737
1.386  26.365486
1.385  26.557413
1.384  26.532858
1.383  26.647519
1.382  26.598434
1.381  26.616527
1.380  26.614848
1.379  26.713684
1.378  26.632876
1.377  26.754152
1.376  26.761076
1.375  26.771524
1.374  26.716565
1.373  26.826401
1.372  26.757545
1.371  26.838419
1.370  26.707899
1.369  26.837319
1.368  26.822367
1.367  26.845425
1.366  26.732046
1.365  26.858695
1.364  26.782890
1.363  26.981421
1.362  26.783128
1.361  26.796902
1.360  26.792461
1.359  26.892085
1.358  26.864368
1.357  26.942110
1.356  26.861196
1.355  26.737060
1.354  26.856787
1.353  26.862588
1.352  26.816237
1.351  26.861149
1.350  26.819197
1.349  26.848536
1.348  26.703032
1.347  26.805442
1.346  26.685815
1.345  26.718199
1.344  26.699386
1.343  26.783838
1.342  26.630697
1.341  26.680728
1.340  26.638897
1.339  26.664818
1.338  26.656234
1.337  26.679787
1.336  26.595638
1.335  26.629576
1.334  26.503768
1.333  26.652273
1.332  26.542595
1.331  26.570572
1.330  26.519797
1.329  26.545894
1.328  26.496756
1.327  26.485555
1.326  26.470092
1.325  26.485851
1.324  26.501746
1.323  26.533940
1.322  26.401942
1.321  26.494063
1.320  26.460706
1.319  26.508571
1.318  26.423852
1.317  26.498202
1.316  26.361682
1.315  26.407866
1.314  26.395745
1.313  26.436618
1.312  26.309130
1.311  26.443382
1.310  26.284023
1.309  26.404446
1.308  26.319130
1.307  26.333679
1.306  26.353903
1.305  26.321954
1.304  26.262491
1.303  26.325794
1.302  26.260794
1.301  26.330173
1.300  26.241973
1.299  26.326486
1.298  26.289491
1.297  26.313945
1.296  26.191720
1.295  26.338608
1.294  26.252781
1.293  26.277816
1.292  26.264225
1.291  26.194775
1.290  26.202543
1.289  26.303513
1.288  26.170927
1.287  26.237801
1.286  26.301685
1.285  26.276223
1.284  26.246557
1.283  26.296538
1.282  26.243553
1.281  26.213898
1.280  26.201055
1.279  26.212377
1.278  26.189750
1.277  26.208992
1.276  26.146173
1.275  26.195832
1.274  26.132222
1.273  26.143420
1.272  26.135157
1.271  26.181709
1.270  26.111159
1.269  26.185368
1.268  26.103245
1.267  26.125469
1.266  26.082320
1.265  26.086400
1.264  26.099378
1.263  26.113575
1.262  26.067411
1.261  26.045448
1.260  26.012866
1.259  26.015495
1.258  25.960109
1.257  25.981937
1.256  25.963980
1.255  25.941439
1.254  25.929630
1.253  25.972440
1.252  25.918045
1.251  25.917362
1.250  25.911050
1.249  25.873755
1.248  25.870910
1.247  25.887325
1.246  25.864974
1.245  25.866353
1.244  25.834063
1.243  25.845811
1.242  25.786091
1.241  25.838387
1.240  25.831826
1.239  25.827299
1.238  25.804695
1.237  25.790416
1.236  25.759789
1.235  25.794638
1.234  25.799665
1.233  25.787475
1.232  25.796353
1.231  25.798797
1.230  25.761889
1.229  25.737673
1.228  25.736781
1.227  25.752367
1.226  25.732495
1.225  25.727179
1.224  25.704023
1.223  25.700298
1.222  25.706640
1.221  25.678900
1.220  25.627577
1.219  25.639726
1.218  25.689152
1.217  25.659666
1.216  25.601850
1.215  25.633864
1.214  25.617561
1.213  25.629777
1.212  25.653228
1.211  25.608217
1.210  25.567488
1.209  25.574870
1.208  25.611920
1.207  25.568268
1.206  25.519243
1.205  25.528866
1.204  25.542157
1.203  25.530260
1.202  25.532152
1.201  25.481845
1.200  25.491176
1.199  25.484751
1.198  25.472817
1.197  25.484546
1.196  25.477967
1.195  25.412854
1.194  25.414975
1.193  25.419949
1.192  25.444185
1.191  25.455666
1.190  25.439029
1.189  25.486330
1.188  25.358464
1.187  25.349615
1.186  25.375146
1.185  25.332624
1.184  25.378702
1.183  25.341727
1.182  25.374958
1.181  25.366751
1.180  25.338322
1.179  25.299336
1.178  25.361546
1.177  25.352772
1.176  25.341107
1.175  25.339156
1.174  25.360075
1.173  25.303287
1.172  25.357541
1.171  25.322928
1.170  25.336244
1.169  25.330733
1.168  25.294100
1.167  25.233936
1.166  25.244364
1.165  25.236660
1.164  25.267588
1.163  25.217227
1.162  25.257537
1.161  25.221132
1.160  25.253526
1.159  25.208724
1.158  25.246010
1.157  25.219598
1.156  25.223273
1.155  25.224311
1.154  25.234494
1.153  25.179345
1.152  25.215145
1.151  25.197588
1.150  25.193282
1.149  25.144728
1.148  25.208605
1.147  25.143093
1.146  25.175266
1.145  25.088510
1.144  25.141491
1.143  25.099735
1.142  25.190796
1.141  25.106380
1.140  25.147936
1.139  25.091757
1.138  25.172723
1.137  25.081851
1.136  25.126712
1.135  25.082257
1.134  25.128240
1.133  25.062188
1.132  25.128049
1.131  25.018773
1.130  25.084948
1.129  25.073392
1.128  25.134890
1.127  24.980011
1.126  25.033317
1.125  24.974915
1.124  25.050294
1.123  25.027807
1.122  25.073177
1.121  24.972618
1.120  25.018063
1.119  24.983434
1.118  25.132527
1.117  24.986562
1.116  25.059655
1.115  24.994000
1.114  25.054509
1.113  25.045765
1.112  25.080023
1.111  25.020835
1.110  25.068723
1.109  24.973824
1.108  25.067463
1.107  25.017459
1.106  25.090308
1.105  25.039845
1.104  25.062768
1.103  24.983318
1.102  25.087867
1.101  25.002012
1.100  25.058652
1.099  24.983885
1.098  25.056076
1.097  25.088023
1.096  25.017832
1.095  24.965625
1.094  25.083403
1.093  25.023763
1.092  25.029380
1.091  24.987228
1.090  25.086566
1.089  24.946731
1.088  25.063646
1.087  24.935393
1.086  25.020651
1.085  24.994860
1.084  25.056228
1.083  25.011182
1.082  25.028441
1.081  25.004957
1.080  25.130501
1.079  24.968375
1.078  25.099035
1.077  24.977854
1.076  25.046075
1.075  25.059023
1.074  25.033136
1.073  24.991915
1.072  25.033918
1.071  25.075754
1.070  24.999803
1.069  25.063446
1.068  25.130490
1.067  25.052897
1.066  25.099614
1.065  25.122293
1.064  25.147048
1.063  25.117721
1.062  25.156972
1.061  25.065386
1.060  25.148273
1.059  25.096253
1.058  25.106328
1.057  25.060363
1.056  25.140934
1.055  25.027168
1.054  25.199936
1.053  25.153599
1.052  25.214752
1.051  25.094456
1.050  25.101255
1.049  25.088373
1.048  25.147795
1.047  25.143505
1.046  25.136924
1.045  25.104513
1.044  25.118770
1.043  25.158019
1.042  25.162163
1.041  25.143624
1.040  25.172361
1.039  25.131276
1.038  25.235136
1.037  25.126430
1.036  25.193712
1.035  25.109141
1.034  25.242052
1.033  25.099717
1.032  25.288610
1.031  25.158453
1.030  25.188578
1.029  25.143586
1.028  25.232351
1.027  25.201504
1.026  25.184061
1.025  25.148447
1.024  25.255713
1.023  25.145612
1.022  25.238618
1.021  25.150036
1.020  25.170662
1.019  25.157520
1.018  25.232387
1.017  25.221132
1.016  25.196699
1.015  25.201430
1.014  25.293687
1.013  25.124283
1.012  25.242548
1.011  25.237327
1.010  25.279541
1.009  25.133241
1.008  25.178532
1.007  25.133000
1.006  25.166849
1.005  25.149537
1.004  25.224576
1.003  25.135358
1.002  25.214628
1.001  25.193577
1.000  25.236866
0.999  25.152675
0.998  25.209601
0.997  25.176926
0.996  25.187486
0.995  25.182665
0.994  25.218704
0.993  25.227950
0.992  25.162670
0.991  25.184608
0.990  25.232288
0.989  25.152819
0.988  25.128611
0.987  25.082452
0.986  25.223338
0.985  25.151679
0.984  25.122048
0.983  25.104444
0.982  25.164980
0.981  25.107558
0.980  25.135054
0.979  25.086508
0.978  25.101897
0.977  25.057385
0.976  25.064964
0.975  25.082046
0.974  25.046103
0.973  24.981297
0.972  24.977415
0.971  24.922712
0.970  24.936131
0.969  24.946364
0.968  24.941256
0.967  24.891932
0.966  24.897825
0.965  24.816749
0.964  24.828386
0.963  24.810977
0.962  24.834744
0.961  24.844255
0.960  24.882879
0.959  24.864797
0.958  24.880830
0.957  24.890618
0.956  24.918732
0.955  24.871853
0.954  24.899041
0.953  24.892234
0.952  24.899257
0.951  24.919464
0.950  24.976890
0.949  24.971280
0.948  24.940961
0.947  24.918009
0.946  24.995489
0.945  25.017527
0.944  24.946726
0.943  24.956267
0.942  25.013783
0.941  24.979576
0.940  24.984476
0.939  24.936829
0.938  24.926889
0.937  24.939407
0.936  24.948902
0.935  24.969247
0.934  24.929815
0.933  24.884543
0.932  24.888240
0.931  24.894472
0.930  24.908497
0.929  24.938728
0.928  24.912686
0.927  24.921473
0.926  24.930870
0.925  24.862137
0.924  24.887662
0.923  24.922607
0.922  24.892584
0.921  24.901230
0.920  24.909614
0.919  24.912967
0.918  24.910457
0.917  24.932388
0.916  24.919385
0.915  24.946270
0.914  24.921240
0.913  24.974034
0.912  24.959491
0.911  24.971620
0.910  24.967358
0.909  24.996689
0.908  25.002484
0.907  25.018246
0.906  25.020374
0.905  25.045404
0.904  25.005176
0.903  25.052785
0.902  25.051453
0.901  25.116187
0.900  25.074590
0.899  25.116471
0.898  25.117103
0.897  25.166958
0.896  25.139225
0.895  25.184178
0.894  25.216755
0.893  25.232087
0.892  25.177255
0.891  25.227007
0.890  25.189440
0.889  25.291037
0.888  25.322992
0.887  25.350790
0.886  25.295508
0.885  25.339765
0.884  25.359944
0.883  25.425497
0.882  25.397945
0.881  25.488108
0.880  25.450486
0.879  25.529450
0.878  25.558654
0.877  25.602599
0.876  25.572503
0.875  25.597203
0.874  25.623756
0.873  25.698255
0.872  25.666044
0.871  25.725726
0.870  25.718205
0.869  25.817360
0.868  25.808062
0.867  25.874362
0.866  25.792386
0.865  25.886951
0.864  25.920283
0.863  25.970652
0.862  25.943410
0.861  25.979313
0.860  26.259315
0.859  25.957683
0.858  25.763111
0.857  25.972904
0.856  25.964276
0.855  25.849972
0.854  26.014989
0.853  25.979633
0.852  25.945004
0.851  26.076266
0.850  26.099240
0.849  25.972128
0.848  26.094884
0.847  26.112610
0.846  26.023783
0.845  26.131601
0.844  26.175802
0.843  26.070285
0.842  26.155675
0.841  26.229042
0.840  26.126006
0.839  26.195415
0.838  26.234389
0.837  26.124537
0.836  26.179067
0.835  26.247998
0.834  26.149907
0.833  26.208337
0.832  26.277731
0.831  26.179861
0.830  26.216437
0.829  26.287750
0.828  26.193354
0.827  26.220327
0.826  26.289965
0.825  26.185870
0.824  26.231697
0.823  26.287053
0.822  26.186328
0.821  26.242904
0.820  26.299582
0.819  26.183328
0.818  26.182522
0.817  26.275463
0.816  26.158519
0.815  26.196412
0.814  26.251005
0.813  26.179928
0.812  26.189009
0.811  26.224879
0.810  26.198188
0.809  26.191722
0.808  26.206980
0.807  26.180204
0.806  26.146309
0.805  26.203185
0.804  26.165158
0.803  26.109672
0.802  26.176583
0.801  26.152139
0.800  26.072734
0.799  26.120394
0.798  26.098417
0.797  26.053498
0.796  26.076818
0.795  26.090295
0.794  25.983092
0.793  26.024470
0.792  26.039199
0.791  25.960541
0.790  25.996677
0.789  26.015808
0.788  25.940528
0.787  25.946618
0.786  25.959039
0.785  25.912054
0.784  25.913658
0.783  25.944267
0.782  25.837115
0.781  25.845379
0.780  25.882345
0.779  25.836981
0.778  25.830487
0.777  25.846398
0.776  25.778997
0.775  25.754748
0.774  25.767487
0.773  25.731126
0.772  25.704548
0.771  25.733792
0.770  25.685654
0.769  25.658671
0.768  25.659872
0.767  25.656917
0.766  25.606130
0.765  25.622036
0.764  25.616922
0.763  25.546406
0.762  25.551436
0.761  25.557448
0.760  25.495124
0.759  25.477143
0.758  25.482128
0.757  25.438640
0.756  25.446217
0.755  25.436849
0.754  25.389317
0.753  25.385937
0.752  25.382236
0.751  25.354936
0.750  25.312627
0.749  25.325862
0.748  25.309446
0.747  25.255478
0.746  25.266314
0.745  25.266374
0.744  25.210432
0.743  25.206982
0.742  25.214028
0.741  25.154065
0.740  25.153723
0.739  25.138001
0.738  25.104905
0.737  25.084210
0.736  25.082702
0.735  25.058566
0.734  25.024516
0.733  25.025753
0.732  25.003510
0.731  24.972706
0.730  24.967887
0.729  24.962995
0.728  24.918547
0.727  24.931077
0.726  24.915501
0.725  24.881171
0.724  24.871041
0.723  24.861141
0.722  24.828704
0.721  24.827420
0.720  24.827130
0.719  24.776374
0.718  24.777509
0.717  24.766155
0.716  24.733877
0.715  24.728467
0.714  24.718882
0.713  24.677128
0.712  24.665769
0.711  24.660766
0.710  24.632940
0.709  24.627274
0.708  24.613737
0.707  24.588041
0.706  24.576234
0.705  24.572363
0.704  24.545523
0.703  24.543701
0.702  24.532844
0.701  24.503055
0.700  24.481184
0.699  24.480404
0.698  24.462001
0.697  24.438855
0.696  24.427580
0.695  24.408580
0.694  24.389473
0.693  24.385338
0.692  24.373500
0.691  24.359169
0.690  24.353042
0.689  24.336647
0.688  24.303751
0.687  24.300636
0.686  24.277856
0.685  24.257729
0.684  24.253063
0.683  24.247707
0.682  24.233044
0.681  24.230425
0.680  24.219670
0.679  24.193521
0.678  24.194631
0.677  24.182120
0.676  24.157724
0.675  24.150945
0.674  24.143804
0.673  24.125767
0.672  24.111999
0.671  24.112378
0.670  24.094250
0.669  24.078998
0.668  24.073483
0.667  24.055275
0.666  24.034698
0.665  24.027780
0.664  24.024111
0.663  24.011696
0.662  24.000541
0.661  23.983185
0.660  23.964765
0.659  23.961308
0.658  23.947943
0.657  23.927077
0.656  23.916792
0.655  23.905159
0.654  23.880548
0.653  23.867551
0.652  23.859303
0.651  23.843948
0.650  23.832248
0.649  23.823682
0.648  23.804417
0.647  23.789943
0.646  23.789438
0.645  23.773674
0.644  23.754731
0.643  23.748207
0.642  23.734020
0.641  23.715606
0.640  23.707493
0.639  23.693373
0.638  23.677546
0.637  23.668420
0.636  23.653847
0.635  23.637053
0.634  23.626274
0.633  23.613994
0.632  23.594241
0.631  23.578509
0.630  23.563036
0.629  23.546680
0.628  23.534229
0.627  23.509414
0.626  23.498255
0.625  23.497078
0.624  23.482368
0.623  23.469688
0.622  23.455565
0.621  23.442058
0.620  23.434850
0.619  23.422384
0.618  23.408710
0.617  23.393324
0.616  23.380692
0.615  23.370916
0.614  23.355599
0.613  23.345970
0.612  23.336750
0.611  23.326640
0.610  23.317604
0.609  23.305692
0.608  23.292587
0.607  23.276315
0.606  23.265458
0.605  23.257644
0.604  23.240944
0.603  23.225884
0.602  23.213853
0.601  23.205833
0.600  23.197754
0.599  23.193045
0.598  23.192033
0.597  23.181816
0.596  23.172284
0.595  23.165261
0.594  23.154354
0.593  23.141430
0.592  23.127011
0.591  23.111959
0.590  23.102617
0.589  23.089605
0.588  23.072293
0.587  23.059103
0.586  23.054939
0.585  23.038866
0.584  23.018526
0.583  23.013856
0.582  23.006088
0.581  22.994807
0.580  22.979930
0.579  22.964220
0.578  22.952933
0.577  22.943526
0.576  22.933182
0.575  22.922358
0.574  22.909184
0.573  22.892831
0.572  22.877321
0.571  22.864919
0.570  22.855162
0.569  22.847460
0.568  22.844383
0.567  22.834732
0.566  22.825393
0.565  22.819424
0.564  22.816109
0.563  22.803266
0.562  22.801100
0.561  22.749910
0.560  22.714674
0.559  22.700779
0.558  22.697158
0.557  22.682933
0.556  22.671571
0.555  22.659240
0.554  22.644549
0.553  22.632753
0.552  22.620572
0.551  22.607775
0.550  22.587526
0.549  22.568196
0.548  22.551040
0.547  22.538120
0.546  22.526009
0.545  22.515653
0.544  22.502525
0.543  22.486392
0.542  22.467486
0.541  22.456685
0.540  22.438861
0.539  22.428217
0.538  22.412359
0.537  22.399486
0.536  22.383635
0.535  22.374646
0.534  22.366454
0.533  22.353952
0.532  22.342026
0.531  22.328213
0.530  22.316086
0.529  22.308463
0.528  22.291936
0.527  22.283022
0.526  22.260705
0.525  22.254696
0.524  22.238227
0.523  22.226449
0.522  22.212033
0.521  22.199659
0.520  22.187532
0.519  22.169421
0.518  22.155669
0.517  22.142920
0.516  22.130940
0.515  22.114064
0.514  22.090482
0.513  22.079821
0.512  22.062145
0.511  22.033907
0.510  22.009303
0.509  21.996491
0.508  21.967217
0.507  21.943885
0.506  21.919905
0.505  21.895782
0.504  21.869196
0.503  21.845235
0.502  21.828621
0.501  21.796526
0.500  21.771076
0.499  21.746273
0.498  21.724579
0.497  21.690908
0.496  21.659483
0.495  21.633390
0.494  21.600549
0.493  21.570502
0.492  21.534552
0.491  21.498226
0.490  21.454793
0.489  21.430041
0.488  21.392134
0.487  21.343115
0.486  21.301504
0.485  21.261343
0.484  21.214774
0.483  21.168541
0.482  21.138646
0.481  21.117747
0.480  21.112672
0.479  21.114826
0.478  21.116881
0.477  21.121053
0.476  21.112267
0.475  21.077582
0.474  21.054946
0.473  21.027290
0.472  21.001606
0.471  20.980664
0.470  20.960694
0.469  20.943502
0.468  20.920950
0.467  20.895844
0.466  20.880606
0.465  20.855873
0.464  20.832632
0.463  20.812222
0.462  20.794996
0.461  20.765680
0.460  20.741801
0.459  20.705725
0.458  20.674080
0.457  20.644260
0.456  20.611842
0.455  20.574751
0.454  20.536786
0.453  20.486211
0.452  20.432951
0.451  20.386250
0.450  20.341209
0.449  20.278103
0.448  20.229396
0.447  20.161397
0.446  20.094058
0.445  20.033200
0.444  19.970259
0.443  19.923430
0.442  19.899421
0.441  19.885105
0.440  19.870726
0.439  19.867192
0.438  19.859762
0.437  19.856883
0.436  19.846058
0.435  19.835320
0.434  19.827146
0.433  19.805533
0.432  19.784822
0.431  19.778079
0.430  19.764109
0.429  19.742939
0.428  19.728928
0.427  19.716584
0.426  19.702810
0.425  19.693744
0.424  19.683829
0.423  19.669062
0.422  19.651983
0.421  19.642599
0.420  19.621509
0.419  19.607659
0.418  19.594208
0.417  19.571080
0.416  19.550086
0.415  19.529164
0.414  19.514109
0.413  19.480757
0.412  19.463167
0.411  19.438478
0.410  19.405732
0.409  19.378084
0.408  19.351812
0.407  19.321646
0.406  19.294112
0.405  19.261979
0.404  19.226197
0.403  19.206116
0.402  19.178433
0.401  19.139248
0.400  19.116725
