Name: Natrolite Na_2Al_2Si_3O_10.2H_2O
Type: Mineral
Class: Silicates
Subclass: Tectosilicates
Particle Size: 45-125um
Sample No.: TS-8A
Owner: JPL
Wavelength range: IR
Origin: India, Maharashtra, Poona
Collected by Ward's
Description: 





Measurement: Hemispherical reflectance
First Column: X
Second Column: Y
X Units:  Wavelength (micrometers)
Y Units:  Reflectance (percent)
First X Value: 15.3853
Last X Value: 2.00032
Number of X Values: 2256
Additional information: ts08aa.txt
 
15.3853	2.68657
15.3397	2.96882
15.2945	3.06454
15.2495	3.04596
15.2048	2.68654
15.1603	2.40609
15.1161	2.46005
15.0722	2.33166
15.0285	2.15854
14.9851	2.22458
14.9419	2.16795
14.8989	1.89504
14.8563	1.89364
14.8138	2.15431
14.7716	2.27964
14.7296	2.30079
14.6879	2.12784
14.6464	1.90473
14.6052	1.90028
14.5641	1.91623
14.5233	1.85392
14.4828	1.84015
14.4424	1.68768
14.4023	1.47384
14.3624	1.32277
14.3227	1.36983
14.2833	1.4452
14.244	1.20157
14.205	0.909884
14.1662	0.788842
14.1276	0.865312
14.0892	0.841913
14.051	0.649737
14.0131	0.597711
13.9753	0.807829
13.9377	1.0361
13.9004	0.97931
13.8632	0.841185
13.8262	0.796137
13.7895	0.860573
13.7529	0.96115
13.7165	1.06357
13.6803	0.999582
13.6443	1.00415
13.6085	1.12687
13.5729	1.07908
13.5374	1.10734
13.5022	1.32019
13.4671	1.48415
13.4322	1.4346
13.3975	1.62625
13.363	1.88321
13.3286	1.97736
13.2944	2.01956
13.2604	1.95748
13.2266	1.88786
13.193	2.05226
13.1595	2.14462
13.1262	2.09757
13.093	2.09686
13.06	2.1241
13.0272	2.27801
12.9946	2.60882
12.9621	2.64708
12.9298	2.6163
12.8976	2.59272
12.8656	2.62171
12.8337	2.83781
12.8021	2.83146
12.7705	2.91688
12.7391	3.06976
12.7079	3.11711
12.6769	3.11934
12.6459	3.14617
12.6152	3.27387
12.5845	3.35414
12.5541	3.36506
12.5238	3.46325
12.4936	3.58038
12.4635	3.62258
12.4337	3.7225
12.4039	3.77713
12.3743	3.82591
12.3448	3.75468
12.3155	3.8583
12.2863	3.97505
12.2573	3.9265
12.2284	4.0455
12.1996	4.1274
12.171	4.12239
12.1425	4.14416
12.1141	4.30271
12.0859	4.40806
12.0578	4.41106
12.0298	4.5116
12.0019	4.41891
11.9742	4.42394
11.9466	4.70903
11.9192	4.82765
11.8918	4.81079
11.8646	4.83918
11.8375	4.88162
11.8106	4.94486
11.7837	4.96882
11.757	4.92361
11.7304	4.88339
11.7039	4.83612
11.6776	4.8245
11.6513	4.86286
11.6252	4.80676
11.5992	4.73542
11.5733	4.72886
11.5475	4.7573
11.5219	4.77929
11.4963	4.72562
11.4709	4.7975
11.4455	5.0192
11.4203	5.12796
11.3952	5.1118
11.3702	5.07995
11.3454	5.11659
11.3206	5.1558
11.2959	5.20331
11.2714	5.30326
11.2469	5.33754
11.2226	5.40344
11.1983	5.29412
11.1742	5.2545
11.1502	5.31992
11.1263	5.40175
11.1024	5.46284
11.0787	5.45339
11.0551	5.50184
11.0316	5.56549
11.0081	5.72068
10.9848	5.70389
10.9616	5.76749
10.9385	5.84318
10.9154	5.83928
10.8925	6.00088
10.8697	6.17266
10.8469	6.24887
10.8243	6.36325
10.8017	6.50804
10.7793	6.718
10.7569	6.86742
10.7346	7.10497
10.7125	7.50683
10.6904	7.75375
10.6684	7.88837
10.6465	8.15141
10.6247	8.46894
10.6029	8.82597
10.5813	9.25288
10.5597	9.66598
10.5383	10.1845
10.5169	10.7867
10.4956	11.5856
10.4744	12.471
10.4533	13.5851
10.4323	14.8835
10.4113	16.5464
10.3904	18.4122
10.3697	19.9343
10.349	20.5013
10.3284	20.0189
10.3078	19.4698
10.2874	19.2517
10.267	18.9563
10.2467	18.7118
10.2265	18.9494
10.2064	19.8692
10.1863	21.1586
10.1663	22.6415
10.1464	24.2587
10.1266	25.8496
10.1069	27.0625
10.0872	27.4809
10.0676	26.9606
10.0481	26.0235
10.0287	25.781
10.0093	26.499
9.99005	27.2216
9.97084	27.2877
9.95169	26.7316
9.93263	25.8466
9.91364	25.0581
9.89472	24.4678
9.87587	23.5495
9.8571	22.0008
9.83839	19.8528
9.81976	17.3405
9.80119	14.554
9.78271	11.6205
9.76428	8.47783
9.74592	5.32513
9.72764	3.01554
9.70943	1.9221
9.69128	1.82509
9.6732	2.3713
9.65518	3.39468
9.63724	4.80846
9.61935	6.6791
9.60155	8.54518
9.5838	10.2169
9.56611	11.7145
9.5485	12.7291
9.53094	13.5484
9.51345	14.3087
9.49604	15.2098
9.47867	16.0533
9.46137	16.6462
9.44414	17.1812
9.42697	17.3806
9.40986	16.9251
9.39281	15.9531
9.37583	14.5493
9.35891	12.9656
9.34204	11.5117
9.32524	10.441
9.3085	9.88826
9.29182	9.95545
9.27519	10.5018
9.25863	11.4764
9.24213	12.8823
9.22568	14.2486
9.2093	15.4793
9.19297	16.6024
9.17669	17.3834
9.16048	17.8299
9.14433	17.9113
9.12823	17.6395
9.11218	17.2598
9.0962	16.9006
9.08027	16.5814
9.06439	16.1871
9.04858	16.145
9.03281	16.4952
9.0171	16.9737
9.00145	17.4316
8.98585	17.7954
8.9703	17.6691
8.9548	17.2961
8.93937	16.5766
8.92398	15.2896
8.90865	14.0214
8.89337	13.0036
8.87814	11.7765
8.86296	10.482
8.84784	9.41683
8.83277	8.53735
8.81774	7.52542
8.80277	6.7006
8.78786	6.0189
8.77298	5.34569
8.75816	4.67954
8.7434	4.08143
8.72868	3.60198
8.714	3.13728
8.69938	2.71303
8.68481	2.3337
8.67029	2.09156
8.65581	1.86837
8.64139	1.60098
8.62701	1.48421
8.61268	1.25898
8.5984	0.935494
8.58416	0.860565
8.56997	0.805423
8.55583	0.682913
8.54174	0.619283
8.52769	0.483538
8.51368	0.281909
8.49973	0.37404
8.48582	0.446083
8.47195	0.305264
8.45813	0.230619
8.44436	0.216413
8.43062	0.157667
8.41693	0.0684589
8.4033	-0.0622886
8.3897	-0.126707
8.37614	-0.00394406
8.36264	0.0818021
8.34917	0.0889585
8.33574	0.0805511
8.32236	0.247464
8.30903	0.308577
8.29573	0.105427
8.28248	0.119379
8.26927	0.104198
8.2561	0.0574549
8.24298	-0.0106278
8.2299	-0.042295
8.21685	0.037563
8.20385	0.198473
8.19089	0.250858
8.17797	-0.0080566
8.16509	-0.0945074
8.15225	0.0695507
8.13946	0.0788407
8.1267	0.0386811
8.11398	-0.00278277
8.10131	0.0781117
8.08867	0.161304
8.07606	0.0903625
8.0635	0.138009
8.05099	0.203157
8.0385	0.23621
8.02606	0.272356
8.01366	0.245461
8.00129	0.312888
7.98896	0.371432
7.97667	0.231429
7.96442	0.181466
7.9522	0.205758
7.94002	0.143224
7.92788	0.144552
7.91578	0.269275
7.90371	0.361905
7.89168	0.329606
7.87969	0.320598
7.86773	0.342102
7.85581	0.319467
7.84392	0.32858
7.83207	0.38571
7.82026	0.422027
7.80849	0.469173
7.79674	0.406227
7.78503	0.29181
7.77337	0.334337
7.76173	0.42098
7.75012	0.45821
7.73856	0.43118
7.72703	0.432965
7.71553	0.51476
7.70406	0.465441
7.69263	0.473436
7.68123	0.515229
7.66987	0.572995
7.65855	0.606058
7.64725	0.622509
7.63598	0.578565
7.62475	0.590652
7.61356	0.587909
7.60239	0.59237
7.59126	0.637605
7.58017	0.686173
7.5691	0.679017
7.55806	0.692602
7.54707	0.696444
7.5361	0.738795
7.52516	0.782287
7.51425	0.779047
7.50338	0.853905
7.49253	0.924246
7.48172	0.946857
7.47094	0.875994
7.46019	0.923473
7.44947	0.987246
7.43879	0.991052
7.42813	0.975027
7.4175	1.00391
7.4069	1.0123
7.39634	0.922254
7.3858	0.957678
7.37529	1.04652
7.36482	1.03332
7.35437	1.0835
7.34396	1.15336
7.33357	1.1418
7.32321	1.16681
7.31288	1.22142
7.30258	1.29287
7.29231	1.23498
7.28207	1.23085
7.27185	1.26933
7.26167	1.2216
7.25152	1.20969
7.24139	1.29922
7.23129	1.35193
7.22122	1.41504
7.21117	1.41807
7.20116	1.42113
7.19117	1.46072
7.18121	1.48708
7.17128	1.48054
7.16137	1.45884
7.1515	1.51419
7.14164	1.50692
7.13182	1.46087
7.12203	1.45738
7.11225	1.49708
7.10251	1.57732
7.0928	1.60754
7.08311	1.59997
7.07344	1.64635
7.06381	1.7478
7.0542	1.82943
7.04461	1.89979
7.03506	1.94493
7.02552	1.88762
7.01601	1.8462
7.00653	1.91959
6.99708	1.98126
6.98765	2.04361
6.97824	2.04512
6.96886	2.04414
6.95951	2.06986
6.95018	2.06828
6.94087	2.04903
6.9316	2.04583
6.92234	2.05054
6.91311	2.15689
6.90391	2.1887
6.89473	2.15964
6.88557	2.14226
6.87644	2.15433
6.86733	2.189
6.85824	2.22575
6.84918	2.18452
6.84015	2.17075
6.83114	2.17013
6.82215	2.23993
6.81319	2.33524
6.80424	2.4059
6.79532	2.42866
6.78643	2.37415
6.77756	2.42545
6.76871	2.58462
6.75989	2.566
6.75109	2.48759
6.74231	2.49506
6.73355	2.5582
6.72482	2.59436
6.71611	2.63886
6.70742	2.65339
6.69875	2.6564
6.69011	2.65118
6.68149	2.69654
6.67289	2.71692
6.66431	2.70233
6.65576	2.82931
6.64722	2.95335
6.63871	2.9827
6.63022	2.97409
6.62175	2.983
6.61331	2.97467
6.60488	2.95913
6.59648	3.01667
6.5881	3.06569
6.57974	3.03251
6.5714	3.04598
6.56308	3.09792
6.55478	3.07081
6.54651	3.05945
6.53825	3.1527
6.53001	3.17006
6.5218	3.18361
6.51361	3.13708
6.50544	3.128
6.49729	3.25983
6.48915	3.23244
6.48104	3.13273
6.47295	3.1282
6.46488	3.10723
6.45683	3.02123
6.4488	3.00211
6.44079	2.99685
6.4328	2.95859
6.42482	2.96266
6.41687	2.94378
6.40894	2.86503
6.40103	2.88344
6.39314	2.9044
6.38526	2.80965
6.37741	2.71825
6.36957	2.69196
6.36176	2.61116
6.35396	2.49837
6.34618	2.47768
6.33843	2.42647
6.33069	2.45574
6.32297	2.36828
6.31527	2.15295
6.30758	2.12394
6.29992	2.17199
6.29227	2.1663
6.28465	2.16125
6.27704	2.12985
6.26945	2.07089
6.26188	2.03218
6.25432	1.98012
6.24679	1.93052
6.23927	1.89877
6.23177	1.7808
6.22429	1.6632
6.21683	1.62535
6.20938	1.58319
6.20195	1.55245
6.19454	1.44443
6.18715	1.33747
6.17978	1.34216
6.17242	1.41036
6.16508	1.4275
6.15776	1.33491
6.15045	1.28468
6.14317	1.24734
6.1359	1.19889
6.12864	1.14794
6.12141	1.09125
6.11419	1.05599
6.10699	1.08978
6.0998	1.16625
6.09263	1.17004
6.08549	1.2194
6.07835	1.27308
6.07123	1.34603
6.06413	1.4833
6.05705	1.66028
6.04998	1.8
6.04293	1.85879
6.0359	1.94161
6.02888	2.03787
6.02187	2.13494
6.01489	2.26692
6.00792	2.36513
6.00096	2.46859
5.99403	2.60417
5.98711	2.72497
5.9802	2.76734
5.97331	2.83626
5.96644	3.02596
5.95958	3.11293
5.95274	3.17661
5.94591	3.27843
5.9391	3.38277
5.9323	3.32377
5.92552	3.25618
5.91876	3.27002
5.91201	3.27481
5.90528	3.27146
5.89856	3.33038
5.89186	3.3472
5.88517	3.42785
5.8785	3.4254
5.87184	3.32163
5.8652	3.39431
5.85857	3.41373
5.85196	3.36907
5.84536	3.47212
5.83878	3.48226
5.83221	3.51168
5.82566	3.50236
5.81912	3.50857
5.81259	3.53919
5.80608	3.49797
5.79959	3.52624
5.79311	3.56849
5.78665	3.66603
5.78019	3.70708
5.77376	3.69536
5.76734	3.75691
5.76093	3.85452
5.75453	4.03699
5.74815	4.17594
5.74179	4.19663
5.73543	4.24651
5.7291	4.25543
5.72277	4.24547
5.71646	4.36263
5.71017	4.45211
5.70389	4.48739
5.69762	4.6184
5.69136	4.65377
5.68513	4.68097
5.6789	4.86334
5.67268	4.96614
5.66648	4.9964
5.6603	5.16917
5.65413	5.29302
5.64797	5.32752
5.64182	5.39496
5.63569	5.44943
5.62957	5.40698
5.62347	5.46208
5.61737	5.55004
5.61129	5.59914
5.60522	5.7138
5.59917	5.91815
5.59313	6.05244
5.5871	6.06843
5.58109	6.14532
5.57509	6.29375
5.5691	6.28553
5.56312	6.20589
5.55716	6.22802
5.55121	6.35378
5.54528	6.42952
5.53935	6.43537
5.53344	6.39323
5.52754	6.36276
5.52166	6.38318
5.51578	6.41359
5.50992	6.4145
5.50407	6.46371
5.49823	6.47934
5.49241	6.43091
5.4866	6.50734
5.4808	6.61779
5.47501	6.69893
5.46923	6.76136
5.46347	6.83424
5.45772	6.92906
5.45198	7.0702
5.44625	7.21567
5.44054	7.41743
5.43484	7.58815
5.42914	7.76799
5.42347	8.03854
5.4178	8.16714
5.41214	8.34284
5.4065	8.58875
5.40087	8.75896
5.39525	8.91447
5.38964	9.15218
5.38404	9.40978
5.37846	9.61348
5.37288	9.79891
5.36732	9.94167
5.36177	10.0932
5.35623	10.2391
5.35071	10.3997
5.34519	10.5593
5.33968	10.6415
5.33419	10.8245
5.32871	11.1176
5.32324	11.3353
5.31778	11.5695
5.31233	11.9162
5.30689	12.2671
5.30147	12.5813
5.29605	12.8825
5.29065	13.1869
5.28525	13.3802
5.27987	13.6692
5.2745	13.902
5.26914	14.0496
5.26379	14.1741
5.25845	14.2331
5.25312	14.2597
5.24781	14.2946
5.2425	14.3342
5.23721	14.3079
5.23192	14.1604
5.22665	13.955
5.22138	13.804
5.21613	13.6078
5.21089	13.3031
5.20566	13.1474
5.20044	13.1816
5.19522	13.2078
5.19002	13.2608
5.18483	13.2479
5.17965	13.2176
5.17448	13.3047
5.16933	13.3786
5.16418	13.3978
5.15904	13.3986
5.15391	13.286
5.14879	13.1275
5.14368	12.8875
5.13859	12.6203
5.1335	12.3566
5.12842	12.0688
5.12335	11.8349
5.1183	11.6869
5.11325	11.5547
5.10821	11.4579
5.10318	11.402
5.09817	11.296
5.09316	11.1277
5.08816	10.8677
5.08317	10.6475
5.07819	10.5222
5.07322	10.3946
5.06826	10.2503
5.06331	10.0094
5.05837	9.81027
5.05344	9.73665
5.04852	9.60448
5.04361	9.42778
5.03871	9.31669
5.03382	9.3538
5.02894	9.51934
5.02406	9.79255
5.0192	10.1098
5.01435	10.4452
5.0095	10.7049
5.00467	10.945
4.99984	11.2492
4.99502	11.5978
4.99021	11.8954
4.98542	12.0879
4.98063	12.1566
4.97585	12.2715
4.97108	12.4429
4.96632	12.6927
4.96156	12.8407
4.95682	12.8942
4.95209	12.886
4.94736	12.9214
4.94264	12.8724
4.93794	12.7688
4.93324	12.6869
4.92855	12.5395
4.92387	12.2765
4.9192	12.0526
4.91453	11.869
4.90988	11.6606
4.90524	11.4341
4.9006	11.2923
4.89597	11.1066
4.89135	10.8378
4.88674	10.7207
4.88214	10.6855
4.87755	10.5066
4.87296	10.3004
4.86839	10.1461
4.86382	10.0635
4.85926	9.93488
4.85471	9.83904
4.85017	9.79047
4.84564	9.69556
4.84111	9.60891
4.8366	9.48159
4.83209	9.36186
4.82759	9.15949
4.8231	8.96325
4.81862	8.847
4.81415	8.67914
4.80968	8.47433
4.80522	8.32142
4.80077	8.17033
4.79633	7.9079
4.7919	7.64264
4.78747	7.46329
4.78306	7.24337
4.77865	6.92612
4.77425	6.60481
4.76986	6.2091
4.76547	5.93251
4.7611	5.72555
4.75673	5.39978
4.75237	5.01207
4.74802	4.62142
4.74367	4.3584
4.73934	4.12396
4.73501	3.83292
4.73069	3.58311
4.72638	3.42242
4.72207	3.20811
4.71777	2.97364
4.71348	2.78281
4.7092	2.58671
4.70493	2.47921
4.70066	2.40998
4.69641	2.30314
4.69216	2.17152
4.68791	2.09039
4.68368	2.03533
4.67945	2.03613
4.67523	2.06656
4.67102	2.07686
4.66682	2.03401
4.66262	2.06878
4.65843	2.09157
4.65425	2.15583
4.65007	2.21953
4.64591	2.31273
4.64175	2.54406
4.6376	2.72448
4.63345	2.89374
4.62932	3.15588
4.62519	3.45785
4.62106	3.69779
4.61695	4.0315
4.61284	4.41123
4.60874	4.79139
4.60465	5.18187
4.60056	5.58666
4.59648	5.94741
4.59241	6.29763
4.58835	6.63951
4.58429	6.92126
4.58024	7.18803
4.5762	7.41004
4.57216	7.65705
4.56814	7.8694
4.56411	8.10793
4.5601	8.29102
4.55609	8.42336
4.55209	8.61783
4.5481	8.81316
4.54411	8.96816
4.54013	9.13028
4.53616	9.33847
4.5322	9.5256
4.52824	9.75319
4.52429	10.0124
4.52034	10.2468
4.51641	10.4261
4.51247	10.6418
4.50855	10.8858
4.50463	11.1444
4.50072	11.4223
4.49682	11.6878
4.49292	12.0755
4.48903	12.4127
4.48515	12.7711
4.48127	13.0872
4.4774	13.4445
4.47354	13.9373
4.46968	14.369
4.46584	14.694
4.46199	15.1242
4.45815	15.6034
4.45432	16.0648
4.4505	16.4755
4.44668	16.9601
4.44287	17.4432
4.43907	17.8037
4.43527	18.1451
4.43148	18.5499
4.4277	18.9657
4.42392	19.339
4.42015	19.6256
4.41638	19.8596
4.41262	20.1105
4.40887	20.3611
4.40513	20.6185
4.40139	20.8489
4.39765	20.9917
4.39393	21.0517
4.39021	21.1403
4.38649	21.3124
4.38278	21.5127
4.37908	21.6225
4.37539	21.7518
4.3717	21.8964
4.36801	22.0115
4.36434	22.1607
4.36067	22.2423
4.357	22.3852
4.35335	22.4527
4.34969	22.5684
4.34605	22.7665
4.34241	22.9248
4.33877	22.9879
4.33514	23.087
4.33152	23.1394
4.32791	23.1732
4.3243	23.202
4.32069	23.1835
4.3171	23.2233
4.31351	23.2007
4.30992	23.2413
4.30634	23.3042
4.30277	23.2953
4.2992	23.3323
4.29564	23.4501
4.29208	23.5306
4.28853	23.5776
4.28499	23.8077
4.28145	24.0275
4.27792	24.2051
4.27439	24.3576
4.27087	24.6432
4.26735	25.0587
4.26384	25.4539
4.26034	25.8476
4.25684	26.2616
4.25335	26.3765
4.24986	26.2579
4.24638	26.2819
4.24291	26.4364
4.23944	26.5803
4.23598	26.6385
4.23252	26.7386
4.22906	27.0165
4.22562	27.3908
4.22218	27.7443
4.21874	28.0333
4.21531	28.3363
4.21189	28.6931
4.20847	29.0447
4.20506	29.3121
4.20165	29.5421
4.19825	29.7385
4.19485	29.926
4.19146	30.1014
4.18807	30.2356
4.18469	30.5138
4.18132	30.823
4.17795	31.0591
4.17458	31.3265
4.17123	31.6204
4.16787	31.9328
4.16453	32.2299
4.16118	32.5665
4.15785	33.0233
4.15451	33.4953
4.15119	33.9561
4.14787	34.3761
4.14455	34.7467
4.14124	35.1703
4.13794	35.6097
4.13464	35.9098
4.13134	36.2004
4.12805	36.5204
4.12477	36.7701
4.12149	37.0239
4.11822	37.2756
4.11495	37.4241
4.11168	37.6649
4.10843	37.9102
4.10517	38.0463
4.10192	38.1759
4.09868	38.3009
4.09545	38.4027
4.09221	38.4949
4.08899	38.6217
4.08576	38.7327
4.08255	38.7693
4.07933	38.7781
4.07613	38.8349
4.07292	38.8719
4.06973	38.8079
4.06654	38.6923
4.06335	38.5682
4.06017	38.3823
4.05699	38.1126
4.05382	37.9332
4.05065	37.8268
4.04749	37.7339
4.04433	37.9167
4.04118	38.2861
4.03803	38.5948
4.03489	38.9145
4.03175	39.1919
4.02862	39.3788
4.02549	39.6082
4.02237	39.7565
4.01925	39.8336
4.01614	39.9028
4.01303	40.0594
4.00993	40.1626
4.00683	40.2192
4.00373	40.3658
4.00064	40.4736
3.99756	40.5021
3.99448	40.5861
3.9914	40.6678
3.98833	40.7388
3.98527	40.7698
3.98221	40.7238
3.97915	40.6634
3.9761	40.6897
3.97305	40.7858
3.97001	40.8758
3.96697	40.9489
3.96394	40.8944
3.96091	40.8703
3.95789	40.9185
3.95487	40.9127
3.95186	40.8891
3.94885	40.8907
3.94584	40.8692
3.94284	40.8864
3.93984	40.8391
3.93685	40.7882
3.93386	40.7745
3.93088	40.7676
3.9279	40.7279
3.92493	40.7348
3.92196	40.6322
3.919	40.5328
3.91604	40.4575
3.91308	40.4446
3.91013	40.389
3.90718	40.2972
3.90424	40.291
3.9013	40.2289
3.89837	40.0921
3.89544	39.9779
3.89252	39.945
3.8896	39.8864
3.88668	39.786
3.88377	39.6143
3.88086	39.492
3.87796	39.3916
3.87506	39.2205
3.87217	39.0277
3.86928	38.8589
3.86639	38.6801
3.86351	38.4481
3.86064	38.2258
3.85776	38.0356
3.8549	37.8415
3.85203	37.664
3.84917	37.434
3.84631	37.1022
3.84346	36.7158
3.84062	36.3081
3.83777	35.9375
3.83494	35.8367
3.8321	35.9572
3.82927	36.3005
3.82644	36.5204
3.82362	36.5499
3.82081	36.5787
3.81799	36.5624
3.81518	36.4504
3.81238	36.3183
3.80958	36.2744
3.80678	36.1974
3.80399	36.0833
3.8012	35.9661
3.79841	35.8203
3.79563	35.7916
3.79286	35.7884
3.79008	35.6708
3.78731	35.5753
3.78455	35.4833
3.78179	35.4849
3.77903	35.5201
3.77628	35.455
3.77353	35.4172
3.77079	35.3681
3.76805	35.2351
3.76531	35.1093
3.76258	35.0073
3.75985	34.9074
3.75713	34.7417
3.7544	34.5422
3.75169	34.3552
3.74898	34.1588
3.74627	34.0464
3.74356	33.8978
3.74086	33.682
3.73816	33.4706
3.73547	33.2909
3.73278	33.0938
3.7301	32.8226
3.72741	32.5379
3.72474	32.3921
3.72206	32.244
3.71939	32.0384
3.71673	31.8301
3.71406	31.6147
3.71141	31.4232
3.70875	31.2521
3.7061	30.9449
3.70345	30.7431
3.70081	30.5864
3.69817	30.3366
3.69553	30.0968
3.6929	29.9701
3.69027	29.8789
3.68765	29.7174
3.68503	29.5705
3.68241	29.4245
3.6798	29.2334
3.67719	29.1051
3.67458	29.0182
3.67198	28.8934
3.66938	28.7958
3.66678	28.8345
3.66419	28.8773
3.66161	28.8318
3.65902	28.7318
3.65644	28.6642
3.65387	28.5908
3.65129	28.5881
3.64872	28.6207
3.64616	28.6081
3.64359	28.5604
3.64103	28.5545
3.63848	28.6043
3.63593	28.6392
3.63338	28.713
3.63084	28.804
3.6283	28.7539
3.62576	28.6888
3.62322	28.6493
3.62069	28.6053
3.61817	28.4789
3.61564	28.4701
3.61312	28.4846
3.61061	28.3489
3.6081	28.2969
3.60559	28.2111
3.60308	28.076
3.60058	27.9675
3.59808	27.8374
3.59558	27.6359
3.59309	27.4224
3.59061	27.1811
3.58812	27.0538
3.58564	26.9365
3.58316	26.7106
3.58069	26.4838
3.57822	26.2712
3.57575	26.0471
3.57328	25.8272
3.57082	25.5885
3.56836	25.3589
3.56591	25.1752
3.56346	24.9488
3.56101	24.6948
3.55857	24.5189
3.55613	24.3033
3.55369	24.0197
3.55126	23.8002
3.54883	23.5803
3.5464	23.3159
3.54397	23.151
3.54155	23.0111
3.53914	22.8096
3.53672	22.5652
3.53431	22.3649
3.5319	22.1489
3.5295	21.9386
3.5271	21.7989
3.5247	21.6429
3.52231	21.4761
3.51991	21.235
3.51753	20.9901
3.51514	20.9172
3.51276	20.8314
3.51038	20.5779
3.50801	20.3609
3.50563	20.1216
3.50327	19.8653
3.5009	19.6206
3.49854	19.4571
3.49618	19.3291
3.49382	19.0904
3.49147	18.8487
3.48912	18.6525
3.48677	18.4688
3.48443	18.2299
3.48209	18.0159
3.47975	17.8473
3.47742	17.6425
3.47509	17.4352
3.47276	17.2781
3.47044	17.1097
3.46812	16.8706
3.4658	16.5965
3.46348	16.4999
3.46117	16.3876
3.45886	16.1894
3.45656	15.9223
3.45425	15.6774
3.45195	15.5243
3.44966	15.3831
3.44736	15.2254
3.44507	15.0013
3.44279	14.8568
3.4405	14.6934
3.43822	14.5064
3.43594	14.3783
3.43367	14.1273
3.43139	13.8513
3.42912	13.7245
3.42686	13.6076
3.42459	13.425
3.42233	13.2057
3.42007	13.0705
3.41782	12.8709
3.41557	12.5677
3.41332	12.3681
3.41108	12.256
3.40883	12.0391
3.40659	11.8587
3.40435	11.7193
3.40212	11.5718
3.39989	11.4424
3.39766	11.0445
3.39544	10.7875
3.39322	10.6462
3.391	10.498
3.38878	10.4242
3.38657	10.2962
3.38436	10.0501
3.38215	9.78883
3.37994	9.5006
3.37774	9.35779
3.37554	9.21528
3.37335	9.06418
3.37115	8.85768
3.36896	8.53555
3.36678	8.41776
3.36459	8.30673
3.36241	8.1284
3.36023	7.89095
3.35805	7.6483
3.35588	7.43253
3.35371	7.39285
3.35154	7.24768
3.34938	7.04599
3.34721	6.95298
3.34505	6.80238
3.3429	6.63092
3.34074	6.41943
3.33859	6.15535
3.33644	6.02826
3.3343	5.96162
3.33215	5.77599
3.33001	5.61077
3.32788	5.4838
3.32574	5.31964
3.32361	5.19695
3.32148	5.01735
3.31936	4.94846
3.31723	4.93124
3.31511	4.8524
3.31299	4.64573
3.31088	4.49827
3.30876	4.45587
3.30665	4.45169
3.30455	4.38781
3.30244	4.20711
3.30034	4.10447
3.29824	4.08708
3.29614	4.14149
3.29405	4.13835
3.29196	3.98503
3.28987	3.8811
3.28778	3.79328
3.2857	3.64501
3.28362	3.70333
3.28154	3.74553
3.27946	3.71256
3.27739	3.68788
3.27532	3.58656
3.27325	3.53962
3.27119	3.57608
3.26913	3.53109
3.26707	3.33972
3.26501	3.39481
3.26295	3.43151
3.2609	3.34257
3.25885	3.16577
3.2568	3.15099
3.25476	3.17975
3.25272	3.21663
3.25068	3.24534
3.24864	3.0766
3.24661	3.00642
3.24458	3.04725
3.24255	3.07592
3.24052	3.00458
3.2385	2.93087
3.23648	2.86591
3.23446	2.83017
3.23244	2.84994
3.23043	3.05776
3.22841	3.07515
3.2264	2.91113
3.2244	2.83956
3.22239	2.81556
3.22039	2.71268
3.21839	2.6686
3.2164	2.53598
3.2144	2.50695
3.21241	2.52863
3.21042	2.52894
3.20844	2.52218
3.20645	2.36492
3.20447	2.29731
3.20249	2.32622
3.20051	2.3331
3.19854	2.29732
3.19657	2.21376
3.1946	2.1576
3.19263	2.23778
3.19067	2.15926
3.1887	2.13572
3.18674	2.25611
3.18479	2.24518
3.18283	2.01043
3.18088	1.9365
3.17893	1.95816
3.17698	1.93798
3.17504	2.00901
3.17309	2.04557
3.17115	1.97917
3.16921	1.89283
3.16728	1.85259
3.16534	1.91308
3.16341	1.91454
3.16148	1.87169
3.15956	1.85995
3.15763	1.84443
3.15571	1.82041
3.15379	1.72629
3.15187	1.69198
3.14996	1.80882
3.14805	1.78008
3.14614	1.69132
3.14423	1.79551
3.14232	1.86855
3.14042	1.76159
3.13852	1.6756
3.13662	1.75959
3.13472	1.7434
3.13283	1.67759
3.13094	1.71873
3.12905	1.69544
3.12716	1.61238
3.12528	1.71373
3.12339	1.8118
3.12151	1.8537
3.11964	1.7942
3.11776	1.72025
3.11589	1.63
3.11401	1.4995
3.11214	1.58423
3.11028	1.74395
3.10841	1.7884
3.10655	1.83366
3.10469	1.85134
3.10283	1.8247
3.10098	1.7211
3.09912	1.59047
3.09727	1.66736
3.09542	1.64155
3.09358	1.64902
3.09173	1.81545
3.08989	1.846
3.08805	1.91869
3.08621	1.90108
3.08437	1.84606
3.08254	1.76587
3.08071	1.75565
3.07888	1.81424
3.07705	1.75122
3.07523	1.77488
3.0734	1.85931
3.07158	1.80093
3.06977	1.71037
3.06795	1.74564
3.06613	1.77234
3.06432	1.74307
3.06251	1.83282
3.0607	1.91919
3.0589	1.91274
3.0571	1.81729
3.05529	1.80634
3.05349	1.86954
3.0517	1.87275
3.0499	1.79538
3.04811	1.78649
3.04632	1.74995
3.04453	1.70161
3.04274	1.76525
3.04096	1.8815
3.03918	1.92534
3.0374	1.96442
3.03562	1.97222
3.03384	1.87811
3.03207	1.78935
3.03029	1.81634
3.02852	1.73292
3.02676	1.72505
3.02499	1.80272
3.02323	1.73553
3.02146	1.81175
3.0197	1.86672
3.01795	1.90374
3.01619	1.8429
3.01444	1.76817
3.01269	1.69448
3.01094	1.68646
3.00919	1.64199
3.00744	1.53678
3.0057	1.44236
3.00396	1.44173
3.00222	1.54194
3.00048	1.5163
2.99875	1.55795
2.99701	1.54012
2.99528	1.45054
2.99355	1.3548
2.99183	1.22231
2.9901	1.09557
2.98838	1.1937
2.98666	1.35431
2.98494	1.40528
2.98322	1.31015
2.9815	1.22802
2.97979	1.21094
2.97808	1.29919
2.97637	1.52064
2.97466	1.40691
2.97295	1.37021
2.97125	1.45482
2.96955	1.43449
2.96785	1.36734
2.96615	1.24544
2.96446	1.21227
2.96276	1.16784
2.96107	1.30223
2.95938	1.43388
2.95769	1.42835
2.95601	1.45153
2.95432	1.46325
2.95264	1.38589
2.95096	1.39174
2.94928	1.40072
2.9476	1.36878
2.94593	1.44331
2.94425	1.55591
2.94258	1.54611
2.94092	1.56542
2.93925	1.53633
2.93758	1.43068
2.93592	1.41411
2.93426	1.43508
2.9326	1.31139
2.93094	1.36941
2.92928	1.35714
2.92763	1.3741
2.92598	1.45586
2.92433	1.41835
2.92268	1.41868
2.92103	1.41477
2.91939	1.49792
2.91775	1.66121
2.9161	1.66762
2.91447	1.63392
2.91283	1.70847
2.91119	1.7001
2.90956	1.63537
2.90793	1.63571
2.9063	1.50664
2.90467	1.44944
2.90304	1.3386
2.90142	1.45242
2.89979	1.63104
2.89817	1.64136
2.89656	1.60788
2.89494	1.5879
2.89332	1.5773
2.89171	1.61393
2.8901	1.73187
2.88849	1.71215
2.88688	1.64914
2.88527	1.61342
2.88367	1.57049
2.88206	1.56342
2.88046	1.49519
2.87886	1.5362
2.87727	1.54351
2.87567	1.64934
2.87408	1.74261
2.87248	1.72305
2.87089	1.66227
2.8693	1.68937
2.86772	1.73188
2.86613	1.75832
2.86455	1.7141
2.86297	1.67423
2.86139	1.50844
2.85981	1.51623
2.85823	1.64636
2.85666	1.82317
2.85508	1.81006
2.85351	1.89404
2.85194	1.98706
2.85038	1.80418
2.84881	1.68946
2.84724	1.67315
2.84568	1.84466
2.84412	1.98609
2.84256	1.80768
2.841	1.77116
2.83945	1.83649
2.83789	1.85406
2.83634	1.8919
2.83479	1.95219
2.83324	1.88446
2.83169	1.80412
2.83015	1.90302
2.82861	1.96124
2.82706	1.81929
2.82552	1.53708
2.82398	1.39863
2.82245	1.27045
2.82091	1.12123
2.81938	1.07289
2.81784	0.945614
2.81631	0.778298
2.81479	0.72461
2.81326	0.816809
2.81173	0.940173
2.81021	1.00163
2.80869	0.98802
2.80716	0.930118
2.80565	0.947055
2.80413	0.994818
2.80261	1.11264
2.8011	1.11509
2.79959	1.09074
2.79808	1.07337
2.79657	1.13069
2.79506	0.999644
2.79355	0.953535
2.79205	1.13259
2.79055	1.17905
2.78904	1.17284
2.78754	1.38737
2.78605	1.34033
2.78455	1.42259
2.78306	1.54498
2.78156	1.46109
2.78007	1.24357
2.77858	1.25953
2.77709	1.44074
2.77561	1.38353
2.77412	1.36054
2.77264	1.51134
2.77116	1.49283
2.76968	1.43243
2.7682	1.34162
2.76672	1.36579
2.76524	1.39334
2.76377	1.55008
2.7623	1.86948
2.76083	1.87646
2.75936	1.84411
2.75789	1.91688
2.75642	1.8242
2.75496	1.76882
2.7535	2.06907
2.75203	2.36018
2.75057	2.4959
2.74912	2.49044
2.74766	2.42823
2.7462	2.37077
2.74475	2.40557
2.7433	2.4949
2.74185	2.49194
2.7404	2.68865
2.73895	3.02063
2.7375	3.2009
2.73606	3.34465
2.73462	3.6268
2.73318	3.95524
2.73174	4.16001
2.7303	4.47187
2.72886	4.99063
2.72742	5.48805
2.72599	5.99266
2.72456	6.69951
2.72313	7.3168
2.7217	7.91888
2.72027	8.62394
2.71884	9.21938
2.71742	9.84425
2.71599	10.6909
2.71457	11.5418
2.71315	12.4464
2.71173	13.4211
2.71032	14.1777
2.7089	14.7751
2.70748	15.3491
2.70607	16.0469
2.70466	16.735
2.70325	17.2851
2.70184	17.8277
2.70043	18.4138
2.69903	18.8885
2.69762	19.4089
2.69622	19.9189
2.69482	20.3331
2.69342	20.6392
2.69202	20.8684
2.69062	21.0845
2.68923	21.186
2.68783	21.2502
2.68644	21.371
2.68505	21.5566
2.68366	21.5292
2.68227	21.5287
2.68089	21.6406
2.6795	21.6586
2.67812	21.6276
2.67673	21.8437
2.67535	21.7598
2.67397	21.7086
2.6726	21.9849
2.67122	22.3943
2.66984	22.5766
2.66847	22.5312
2.6671	22.993
2.66572	23.4617
2.66435	23.5888
2.66299	23.6022
2.66162	23.845
2.66025	24.1027
2.65889	24.2707
2.65753	24.4945
2.65616	24.8156
2.65481	24.9675
2.65345	25.1035
2.65209	25.2064
2.65073	25.1871
2.64938	25.1956
2.64803	25.1645
2.64667	25.1626
2.64532	25.2346
2.64397	25.2621
2.64263	25.3514
2.64128	25.3772
2.63994	25.4061
2.63859	25.5455
2.63725	25.8798
2.63591	26.136
2.63457	26.5336
2.63323	26.8682
2.6319	27.3291
2.63056	27.8619
2.62923	27.989
2.62789	28.2014
2.62656	28.6372
2.62523	28.9201
2.6239	29.1992
2.62258	29.3357
2.62125	29.8555
2.61993	30.1768
2.6186	30.1454
2.61728	30.4455
2.61596	30.466
2.61464	30.1914
2.61332	30.1446
2.61201	30.1109
2.61069	30.0391
2.60938	29.9189
2.60807	29.685
2.60675	29.518
2.60544	29.3579
2.60414	28.8307
2.60283	28.5474
2.60152	28.1447
2.60022	27.5245
2.59891	27.0083
2.59761	26.5847
2.59631	26.2996
2.59501	26.1655
2.59371	25.4616
2.59242	24.63
2.59112	24.1054
2.58983	23.8515
2.58853	23.7482
2.58724	23.7012
2.58595	23.6325
2.58466	23.8536
2.58338	24.2114
2.58209	24.4447
2.5808	24.8353
2.57952	25.4387
2.57824	26.0506
2.57695	26.6888
2.57567	27.321
2.5744	28.0524
2.57312	28.7224
2.57184	29.2326
2.57057	29.9686
2.56929	30.6317
2.56802	31.1835
2.56675	31.7087
2.56548	32.3923
2.56421	33.1966
2.56294	33.8374
2.56168	34.3977
2.56041	34.9779
2.55915	35.5394
2.55789	36.0281
2.55662	36.4871
2.55536	37.0434
2.5541	37.6056
2.55285	38.1503
2.55159	38.6705
2.55034	39.2293
2.54908	39.6499
2.54783	39.8587
2.54658	40.2107
2.54533	40.6512
2.54408	40.9839
2.54283	41.2031
2.54159	41.4374
2.54034	41.7325
2.5391	41.924
2.53785	42.089
2.53661	42.1687
2.53537	42.2533
2.53413	42.3651
2.53289	42.4386
2.53166	42.5655
2.53042	42.7416
2.52919	42.8896
2.52795	43.0222
2.52672	43.0045
2.52549	42.9593
2.52426	43.0603
2.52303	43.2416
2.52181	43.4156
2.52058	43.5196
2.51936	43.4649
2.51813	43.4662
2.51691	43.6184
2.51569	43.7126
2.51447	43.8072
2.51325	43.8959
2.51203	43.9935
2.51082	44.17
2.5096	44.3887
2.50839	44.4778
2.50717	44.54
2.50596	44.6353
2.50475	44.6626
2.50354	44.6202
2.50233	44.6646
2.50113	44.6935
2.49992	44.4596
2.49872	44.3169
2.49751	44.3141
2.49631	44.0894
2.49511	43.8157
2.49391	43.5448
2.49271	43.3018
2.49151	42.928
2.49031	42.5106
2.48912	42.1607
2.48792	41.7472
2.48673	41.2481
2.48554	40.6747
2.48435	40.2048
2.48316	39.8172
2.48197	39.2343
2.48078	38.539
2.4796	38.0039
2.47841	37.5126
2.47723	36.7397
2.47604	35.9951
2.47486	35.4386
2.47368	34.8751
2.4725	34.1016
2.47132	33.5556
2.47014	33.1929
2.46897	32.7315
2.46779	32.2454
2.46662	31.8588
2.46545	31.5918
2.46427	31.4273
2.4631	31.3253
2.46193	31.3363
2.46077	31.5293
2.4596	31.7053
2.45843	31.8368
2.45727	32.0014
2.4561	32.2297
2.45494	32.3667
2.45378	32.3978
2.45262	32.4852
2.45146	32.4312
2.4503	32.3595
2.44914	32.1956
2.44799	31.8953
2.44683	31.6563
2.44568	31.3129
2.44452	30.8745
2.44337	30.4989
2.44222	30.0952
2.44107	29.2975
2.43992	28.7073
2.43877	28.1923
2.43763	27.7202
2.43648	27.3052
2.43534	26.8768
2.43419	26.6069
2.43305	26.5563
2.43191	26.3569
2.43077	26.1195
2.42963	26.2666
2.42849	26.5534
2.42736	26.7682
2.42622	27.0146
2.42509	27.4175
2.42395	27.9803
2.42282	28.5461
2.42169	28.9833
2.42056	29.6359
2.41943	30.3339
2.4183	30.9976
2.41717	31.7825
2.41605	32.6927
2.41492	33.5383
2.4138	34.3515
2.41267	35.193
2.41155	35.911
2.41043	36.6377
2.40931	37.479
2.40819	38.3697
2.40707	39.1845
2.40595	39.9755
2.40484	40.6468
2.40372	41.2887
2.40261	42.0247
2.4015	42.8311
2.40039	43.4551
2.39928	43.8903
2.39817	44.2701
2.39706	44.6435
2.39595	45.1155
2.39484	45.5972
2.39374	45.7739
2.39263	45.8381
2.39153	46.163
2.39043	46.4591
2.38932	46.6174
2.38822	46.8898
2.38712	47.0127
2.38603	47.0138
2.38493	47.1209
2.38383	47.2119
2.38274	47.3587
2.38164	47.523
2.38055	47.7662
2.37946	47.9791
2.37836	48.1286
2.37727	48.2976
2.37618	48.4543
2.3751	48.68
2.37401	48.9774
2.37292	49.2137
2.37184	49.4336
2.37075	49.6246
2.36967	49.9303
2.36859	50.1394
2.3675	50.4011
2.36642	50.7933
2.36534	51.0758
2.36427	51.3966
2.36319	51.7613
2.36211	51.9771
2.36104	52.1799
2.35996	52.3731
2.35889	52.6125
2.35781	52.8182
2.35674	52.9393
2.35567	53.0826
2.3546	53.3222
2.35353	53.4812
2.35247	53.6589
2.3514	53.7811
2.35033	53.8859
2.34927	54.0402
2.3482	54.3005
2.34714	54.4629
2.34608	54.5519
2.34502	54.8113
2.34396	55.0727
2.3429	55.2006
2.34184	55.3681
2.34078	55.599
2.33973	55.9399
2.33867	56.1646
2.33762	56.4525
2.33656	56.7311
2.33551	57.0375
2.33446	57.343
2.33341	57.5564
2.33236	57.6037
2.33131	57.7661
2.33026	57.9854
2.32922	58.1601
2.32817	58.416
2.32712	58.6745
2.32608	58.8704
2.32504	59.0811
2.324	59.323
2.32295	59.5615
2.32191	59.6371
2.32087	59.7916
2.31984	59.9788
2.3188	60.169
2.31776	60.4308
2.31673	60.6658
2.31569	60.8451
2.31466	61.0153
2.31362	61.128
2.31259	61.2187
2.31156	61.3023
2.31053	61.5706
2.3095	61.8474
2.30847	61.8095
2.30745	61.8462
2.30642	61.9647
2.3054	62.2123
2.30437	62.3374
2.30335	62.197
2.30232	62.1727
2.3013	62.4156
2.30028	62.6299
2.29926	62.473
2.29824	62.3433
2.29722	62.3742
2.29621	62.2934
2.29519	62.0349
2.29417	61.9059
2.29316	62.0018
2.29215	61.9932
2.29113	61.9597
2.29012	61.834
2.28911	61.6038
2.2881	61.4055
2.28709	61.1929
2.28608	61.0862
2.28507	60.9776
2.28407	60.821
2.28306	60.6145
2.28206	60.4205
2.28105	60.3884
2.28005	60.2667
2.27905	60.243
2.27805	60.2096
2.27705	60.0777
2.27605	60.0169
2.27505	60.0816
2.27405	60.1846
2.27305	60.1342
2.27206	60.1898
2.27106	60.4158
2.27007	60.4366
2.26907	60.4811
2.26808	60.8054
2.26709	61.0264
2.2661	60.9669
2.26511	60.9856
2.26412	61.31
2.26313	61.4565
2.26214	61.4438
2.26116	61.4577
2.26017	61.4962
2.25919	61.6706
2.2582	62.0246
2.25722	62.1177
2.25624	62.0179
2.25526	62.1479
2.25428	62.2279
2.2533	62.168
2.25232	62.0495
2.25134	61.8746
2.25036	61.8722
2.24939	61.9198
2.24841	61.8743
2.24744	61.8064
2.24646	61.6954
2.24549	61.6423
2.24452	61.619
2.24355	61.6116
2.24257	61.4883
2.24161	61.3452
2.24064	61.2504
2.23967	60.9687
2.2387	60.7386
2.23774	60.669
2.23677	60.7204
2.23581	60.5874
2.23484	60.4146
2.23388	60.2428
2.23292	59.9128
2.23196	59.7868
2.231	59.8082
2.23004	59.5263
2.22908	59.201
2.22812	59.0524
2.22716	58.8409
2.22621	58.5098
2.22525	58.2577
2.2243	58.0757
2.22334	57.7577
2.22239	57.3911
2.22144	57.0375
2.22049	56.7203
2.21953	56.3061
2.21859	55.8677
2.21764	55.5143
2.21669	55.0823
2.21574	54.699
2.21479	54.4434
2.21385	54.0616
2.2129	53.6555
2.21196	53.1885
2.21102	52.7286
2.21007	52.2812
2.20913	51.7549
2.20819	51.3229
2.20725	50.9704
2.20631	50.5604
2.20537	49.9509
2.20444	49.6792
2.2035	49.5366
2.20256	49.1352
2.20163	48.7275
2.20069	48.585
2.19976	48.5756
2.19883	48.4985
2.19789	48.5046
2.19696	48.6086
2.19603	48.6985
2.1951	48.8947
2.19417	48.9796
2.19325	49.039
2.19232	49.3005
2.19139	49.4747
2.19047	49.6879
2.18954	50.0772
2.18862	50.6517
2.18769	50.96
2.18677	50.9492
2.18585	51.1456
2.18493	51.5198
2.18401	51.9423
2.18309	52.3726
2.18217	52.5966
2.18125	52.5723
2.18033	52.8164
2.17942	53.0496
2.1785	53.1991
2.17759	53.2929
2.17667	53.4156
2.17576	53.4557
2.17485	53.4938
2.17393	53.5237
2.17302	53.6418
2.17211	53.591
2.1712	53.5905
2.17029	53.6402
2.16939	53.5282
2.16848	53.5224
2.16757	53.5927
2.16667	53.6486
2.16576	53.614
2.16486	53.6888
2.16395	53.7323
2.16305	53.7331
2.16215	53.783
2.16125	53.8728
2.16035	53.9091
2.15945	54.0745
2.15855	53.9588
2.15765	53.7846
2.15675	54.0092
2.15586	54.1914
2.15496	54.2722
2.15406	54.3803
2.15317	54.3543
2.15228	54.4219
2.15138	54.5527
2.15049	54.5906
2.1496	54.6828
2.14871	54.8193
2.14782	54.9696
2.14693	55.2242
2.14604	55.1404
2.14515	55.008
2.14427	55.1292
2.14338	55.2628
2.14249	55.2444
2.14161	55.3545
2.14072	55.637
2.13984	55.6381
2.13896	55.5259
2.13808	55.5407
2.13719	55.5531
2.13631	55.3761
2.13543	55.25
2.13455	55.1737
2.13368	55.2397
2.1328	55.2918
2.13192	55.2634
2.13105	55.1986
2.13017	55.1047
2.1293	54.9997
2.12842	54.9069
2.12755	54.6534
2.12668	54.5469
2.1258	54.578
2.12493	54.3284
2.12406	54.0905
2.12319	54.0418
2.12232	53.7711
2.12145	53.5699
2.12059	53.5291
2.11972	53.5055
2.11885	53.283
2.11799	53.0654
2.11712	53.2369
2.11626	53.2144
2.1154	52.7844
2.11453	52.2995
2.11367	52.1782
2.11281	52.0391
2.11195	51.8608
2.11109	51.6639
2.11023	51.3187
2.10937	50.8672
2.10851	50.5982
2.10766	50.2738
2.1068	49.8925
2.10594	49.7032
2.10509	49.6206
2.10423	49.1458
2.10338	48.3831
2.10253	47.9489
2.10168	47.7126
2.10082	47.5643
2.09997	47.2624
2.09912	46.7369
2.09827	46.2677
2.09742	46.0052
2.09658	45.6246
2.09573	45.3167
2.09488	45.019
2.09404	44.8747
2.09319	44.527
2.09235	44.243
2.0915	44.3725
2.09066	44.1159
2.08982	43.8987
2.08897	43.6842
2.08813	43.5479
2.08729	43.6893
2.08645	43.4843
2.08561	43.1485
2.08477	43.0065
2.08394	43.0784
2.0831	42.8537
2.08226	42.7229
2.08143	43.0288
2.08059	43.3145
2.07976	43.2289
2.07892	43.1005
2.07809	43.0826
2.07726	42.9721
2.07643	43.4338
2.07559	44.0641
2.07476	44.08
2.07393	43.8071
2.0731	43.8445
2.07228	43.6801
2.07145	43.7658
2.07062	44.1302
2.06979	44.251
2.06897	44.3522
2.06814	44.4752
2.06732	44.7624
2.06649	44.7883
2.06567	44.7979
2.06485	44.8627
2.06403	44.8802
2.0632	44.9279
2.06238	44.9215
2.06156	44.9118
2.06074	44.8546
2.05993	44.7774
2.05911	44.8698
2.05829	44.7248
2.05747	44.483
2.05666	44.6464
2.05584	44.7086
2.05503	44.5381
2.05421	44.4531
2.0534	44.491
2.05259	44.3821
2.05177	44.4213
2.05096	44.3639
2.05015	44.0737
2.04934	43.7033
2.04853	43.7161
2.04772	43.5238
2.04691	43.1463
2.04611	42.9952
2.0453	42.72
2.04449	42.3977
2.04369	42.1344
2.04288	42.0133
2.04208	41.8461
2.04127	41.5915
2.04047	41.3063
2.03967	40.8379
2.03886	40.296
2.03806	39.8788
2.03726	39.5158
2.03646	39.2262
2.03566	38.6868
2.03486	38.0952
2.03407	37.8042
2.03327	37.4474
2.03247	36.7621
2.03167	36.421
2.03088	36.0614
2.03008	35.6146
2.02929	35.2462
2.0285	34.8211
2.0277	34.4607
2.02691	34.208
2.02612	33.6317
2.02533	33.168
2.02453	33.0258
2.02374	32.4345
2.02295	31.9297
2.02217	31.878
2.02138	31.7357
2.02059	31.2645
2.0198	30.8149
2.01902	30.6821
2.01823	30.8221
2.01744	30.807
2.01666	30.3198
2.01588	29.8759
2.01509	29.8534
2.01431	29.8765
2.01353	29.7368
2.01275	29.6184
2.01196	29.7657
2.01118	29.7223
2.0104	29.4642
2.00963	29.3308
2.00885	29.538
2.00807	29.5316
2.00729	29.3061
2.00651	29.113
2.00574	29.3469
2.00496	29.5925
2.00419	29.614
2.00341	29.4933
2.00264	29.3673
2.00187	29.6461
2.00109	29.9782
2.00032	30.151
