Name: Labradorite (Feldspar) (NaSi,CaAl)AlSi_2O_8
Type: Mineral
Class: Silicates
Subclass: Tectosilicates
Particle Size: 125-500um
Sample No.: TS-2A
Owner: JPL
Wavelength range: IR
Origin: Mexico, Sonora, Pinacate
Collected by Burminco
Description:   





Measurement: Hemispherical reflectance
First Column: X
Second Column: Y
X Units:  Wavelength (micrometers)
Y Units:  Reflectance (percent)
First X Value: 15.3853
Last X Value: 2.00032
Number of X Values: 2256
Additional information: ts02aa.txt
 
15.3853	3.47048
15.3397	3.19033
15.2945	2.74378
15.2495	2.50207
15.2048	2.45793
15.1603	2.41146
15.1161	2.22756
15.0722	2.26792
15.0285	2.56875
14.9851	2.61008
14.9419	2.55879
14.8989	2.59208
14.8563	2.6233
14.8138	2.85802
14.7716	2.90081
14.7296	2.80835
14.6879	2.72627
14.6464	2.68416
14.6052	2.73431
14.5641	2.67008
14.5233	2.48715
14.4828	2.64747
14.4424	2.83383
14.4023	2.86916
14.3624	2.92729
14.3227	2.9375
14.2833	2.95988
14.244	3.08814
14.205	3.14669
14.1662	3.26097
14.1276	3.37283
14.0892	3.31133
14.051	3.16141
14.0131	3.24434
13.9753	3.1777
13.9377	3.18054
13.9004	3.0828
13.8632	3.21422
13.8262	3.52394
13.7895	3.63074
13.7529	3.56829
13.7165	3.37373
13.6803	3.46731
13.6443	3.55634
13.6085	3.57592
13.5729	3.69997
13.5374	3.70907
13.5022	3.62423
13.4671	3.68116
13.4322	3.74681
13.3975	3.77117
13.363	3.64917
13.3286	3.49867
13.2944	3.5853
13.2604	3.66028
13.2266	3.61004
13.193	3.53894
13.1595	3.45674
13.1262	3.39728
13.093	3.37886
13.06	3.37513
13.0272	3.33843
12.9946	3.29488
12.9621	3.3464
12.9298	3.43849
12.8976	3.31767
12.8656	3.12649
12.8337	3.05748
12.8021	3.16498
12.7705	3.26295
12.7391	3.23071
12.7079	3.22033
12.6769	3.19663
12.6459	3.09246
12.6152	3.08734
12.5845	3.2691
12.5541	3.37314
12.5238	3.43363
12.4936	3.56372
12.4635	3.70564
12.4337	3.57588
12.4039	3.53766
12.3743	3.82042
12.3448	3.92987
12.3155	3.96599
12.2863	4.17054
12.2573	4.34044
12.2284	4.54885
12.1996	4.65831
12.171	4.70338
12.1425	4.79503
12.1141	4.75837
12.0859	4.83693
12.0578	5.04125
12.0298	5.339
12.0019	5.46141
11.9742	5.43079
11.9466	5.40919
11.9192	5.44947
11.8918	5.55579
11.8646	5.71707
11.8375	5.76575
11.8106	5.84794
11.7837	5.94805
11.757	5.92903
11.7304	5.90823
11.7039	6.01095
11.6776	6.09888
11.6513	6.11319
11.6252	6.19745
11.5992	6.28221
11.5733	6.37299
11.5475	6.44707
11.5219	6.53158
11.4963	6.60644
11.4709	6.73275
11.4455	6.83476
11.4203	7.00165
11.3952	7.23453
11.3702	7.51382
11.3454	7.71639
11.3206	7.88242
11.2959	8.01096
11.2714	8.2817
11.2469	8.55422
11.2226	8.81742
11.1983	9.13354
11.1742	9.41257
11.1502	9.6105
11.1263	9.81772
11.1024	10.092
11.0787	10.3778
11.0551	10.7686
11.0316	10.9879
11.0081	11.0558
10.9848	11.1321
10.9616	11.3941
10.9385	11.6929
10.9154	12.0114
10.8925	12.2677
10.8697	12.4152
10.8469	12.4813
10.8243	12.5895
10.8017	12.6979
10.7793	12.7355
10.7569	12.8809
10.7346	13.1161
10.7125	13.2456
10.6904	13.3968
10.6684	13.5242
10.6465	13.5959
10.6247	13.6634
10.6029	13.6215
10.5813	13.6052
10.5597	13.6672
10.5383	13.6614
10.5169	13.7072
10.4956	13.7715
10.4744	13.6993
10.4533	13.6228
10.4323	13.5336
10.4113	13.389
10.3904	13.3861
10.3697	13.3721
10.349	13.347
10.3284	13.2578
10.3078	13.1544
10.2874	13.0582
10.267	13.0483
10.2467	13.0182
10.2265	13.0042
10.2064	13.0628
10.1863	13.074
10.1663	13.1328
10.1464	13.1796
10.1266	13.059
10.1069	13.0301
10.0872	13.1381
10.0676	13.1575
10.0481	13.094
10.0287	13.0993
10.0093	13.1044
9.99005	12.9408
9.97084	12.7121
9.95169	12.664
9.93263	12.6843
9.91364	12.5594
9.89472	12.5341
9.87587	12.4769
9.8571	12.1501
9.83839	11.8778
9.81976	11.7842
9.80119	11.67
9.78271	11.5639
9.76428	11.3484
9.74592	11.0939
9.72764	10.915
9.70943	10.8056
9.69128	10.7218
9.6732	10.5015
9.65518	10.3974
9.63724	10.2594
9.61935	10.0773
9.60155	9.78152
9.5838	9.55032
9.56611	9.42324
9.5485	9.30219
9.53094	9.17057
9.51345	8.9926
9.49604	8.70451
9.47867	8.52785
9.46137	8.56216
9.44414	8.50277
9.42697	8.37485
9.40986	8.26976
9.39281	8.23507
9.37583	8.17809
9.35891	8.21498
9.34204	8.19969
9.32524	8.09366
9.3085	7.90898
9.29182	7.72889
9.27519	7.68628
9.25863	7.61841
9.24213	7.52927
9.22568	7.70875
9.2093	7.80416
9.19297	7.79746
9.17669	7.81906
9.16048	7.98716
9.14433	8.23318
9.12823	8.39845
9.11218	8.47203
9.0962	8.44656
9.08027	8.61213
9.06439	8.82952
9.04858	8.84164
9.03281	8.98593
9.0171	9.27391
9.00145	9.3866
8.98585	9.50256
8.9703	9.57785
8.9548	9.66099
8.93937	9.80267
8.92398	9.91677
8.90865	9.95034
8.89337	10.0307
8.87814	10.0708
8.86296	9.89761
8.84784	9.7742
8.83277	9.76623
8.81774	9.83753
8.80277	9.81803
8.78786	9.74454
8.77298	9.71519
8.75816	9.59128
8.7434	9.38855
8.72868	9.32506
8.714	9.29616
8.69938	9.22852
8.68481	9.19019
8.67029	9.05464
8.65581	8.85594
8.64139	8.83225
8.62701	8.89637
8.61268	8.9371
8.5984	8.86877
8.58416	8.76647
8.56997	8.6746
8.55583	8.52586
8.54174	8.40445
8.52769	8.48422
8.51368	8.33688
8.49973	8.14001
8.48582	8.07831
8.47195	7.9683
8.45813	7.76632
8.44436	7.55759
8.43062	7.34955
8.41693	7.30097
8.4033	7.07695
8.3897	6.70417
8.37614	6.34481
8.36264	6.06787
8.34917	5.72869
8.33574	5.46182
8.32236	5.0875
8.30903	4.5324
8.29573	4.08648
8.28248	3.50236
8.26927	2.82525
8.2561	2.40892
8.24298	2.01206
8.2299	1.5327
8.21685	1.3393
8.20385	1.23857
8.19089	1.04268
8.17797	0.756876
8.16509	0.536904
8.15225	0.430846
8.13946	0.366737
8.1267	0.372544
8.11398	0.300997
8.10131	0.281132
8.08867	0.287808
8.07606	0.269278
8.0635	0.276531
8.05099	0.2738
8.0385	0.168687
8.02606	0.058098
8.01366	0.0831757
8.00129	0.136912
7.98896	0.0687149
7.97667	0.0203098
7.96442	0.0117603
7.9522	0.0911439
7.94002	0.121796
7.92788	0.0526765
7.91578	0.0737378
7.90371	0.194222
7.89168	0.225638
7.87969	0.182495
7.86773	0.10074
7.85581	0.029192
7.84392	-0.0151454
7.83207	0.0569571
7.82026	0.181274
7.80849	0.222187
7.79674	0.210969
7.78503	0.216948
7.77337	0.256008
7.76173	0.219779
7.75012	0.25921
7.73856	0.346607
7.72703	0.301779
7.71553	0.26159
7.70406	0.294561
7.69263	0.270631
7.68123	0.256524
7.66987	0.346647
7.65855	0.444097
7.64725	0.496581
7.63598	0.520501
7.62475	0.535012
7.61356	0.45204
7.60239	0.443548
7.59126	0.470425
7.58017	0.493127
7.5691	0.515372
7.55806	0.507575
7.54707	0.520582
7.5361	0.564155
7.52516	0.588807
7.51425	0.599481
7.50338	0.633774
7.49253	0.546214
7.48172	0.494399
7.47094	0.656193
7.46019	0.642826
7.44947	0.627923
7.43879	0.698719
7.42813	0.677467
7.4175	0.630862
7.4069	0.702439
7.39634	0.774634
7.3858	0.847917
7.37529	0.861969
7.36482	0.816602
7.35437	0.774257
7.34396	0.795901
7.33357	0.831191
7.32321	0.839926
7.31288	0.831312
7.30258	0.766114
7.29231	0.777364
7.28207	0.78598
7.27185	0.81963
7.26167	0.925977
7.25152	0.984897
7.24139	0.991893
7.23129	0.995981
7.22122	1.02342
7.21117	1.06742
7.20116	1.01785
7.19117	1.00296
7.18121	1.07665
7.17128	1.0362
7.16137	1.03336
7.1515	1.07233
7.14164	1.1094
7.13182	1.11348
7.12203	1.24238
7.11225	1.33395
7.10251	1.21263
7.0928	1.13491
7.08311	1.18238
7.07344	1.22007
7.06381	1.23645
7.0542	1.2235
7.04461	1.18487
7.03506	1.20889
7.02552	1.24653
7.01601	1.23904
7.00653	1.23482
6.99708	1.30258
6.98765	1.35682
6.97824	1.40401
6.96886	1.42874
6.95951	1.44276
6.95018	1.37501
6.94087	1.34475
6.9316	1.44459
6.92234	1.48627
6.91311	1.50519
6.90391	1.47454
6.89473	1.40477
6.88557	1.40445
6.87644	1.43174
6.86733	1.51619
6.85824	1.54968
6.84918	1.53264
6.84015	1.55799
6.83114	1.59782
6.82215	1.54009
6.81319	1.46541
6.80424	1.48559
6.79532	1.60348
6.78643	1.60361
6.77756	1.56457
6.76871	1.60531
6.75989	1.65209
6.75109	1.6441
6.74231	1.55209
6.73355	1.56484
6.72482	1.64484
6.71611	1.62238
6.70742	1.65654
6.69875	1.69513
6.69011	1.67995
6.68149	1.62721
6.67289	1.57712
6.66431	1.67274
6.65576	1.70614
6.64722	1.78114
6.63871	1.85824
6.63022	1.85087
6.62175	1.70236
6.61331	1.54959
6.60488	1.61456
6.59648	1.75316
6.5881	1.75636
6.57974	1.77156
6.5714	1.84246
6.56308	1.77238
6.55478	1.72785
6.54651	1.7704
6.53825	1.77912
6.53001	1.79227
6.5218	1.74568
6.51361	1.70364
6.50544	1.75134
6.49729	1.93396
6.48915	2.02335
6.48104	1.9182
6.47295	1.85808
6.46488	1.84003
6.45683	1.91096
6.4488	1.86711
6.44079	1.78701
6.4328	1.84174
6.42482	1.96097
6.41687	2.05792
6.40894	2.02697
6.40103	1.86998
6.39314	1.77156
6.38526	1.84481
6.37741	1.90836
6.36957	1.86635
6.36176	1.84607
6.35396	1.92418
6.34618	1.99702
6.33843	1.93973
6.33069	1.85656
6.32297	1.82489
6.31527	1.88326
6.30758	1.98469
6.29992	1.98019
6.29227	1.91045
6.28465	1.92585
6.27704	2.00267
6.26945	2.04298
6.26188	1.99364
6.25432	1.95065
6.24679	1.99631
6.23927	2.04649
6.23177	1.99609
6.22429	1.9396
6.21683	1.93301
6.20938	1.90159
6.20195	1.84798
6.19454	1.8605
6.18715	2.00341
6.17978	2.07681
6.17242	2.05434
6.16508	2.08283
6.15776	2.0685
6.15045	1.98478
6.14317	2.01839
6.1359	2.07105
6.12864	2.0699
6.12141	2.11869
6.11419	2.16941
6.10699	2.1327
6.0998	2.13365
6.09263	2.07071
6.08549	2.02752
6.07835	2.10694
6.07123	2.19239
6.06413	2.12864
6.05705	2.0551
6.04998	2.09807
6.04293	2.0451
6.0359	2.08539
6.02888	2.10324
6.02187	2.12274
6.01489	2.18958
6.00792	2.0784
6.00096	2.04866
5.99403	2.12725
5.98711	2.22683
5.9802	2.27106
5.97331	2.21862
5.96644	2.18616
5.95958	2.23832
5.95274	2.23978
5.94591	2.12075
5.9391	2.1804
5.9323	2.29247
5.92552	2.25243
5.91876	2.2812
5.91201	2.32184
5.90528	2.33479
5.89856	2.36802
5.89186	2.34178
5.88517	2.366
5.8785	2.3673
5.87184	2.22093
5.8652	2.24104
5.85857	2.37425
5.85196	2.46382
5.84536	2.449
5.83878	2.38142
5.83221	2.40275
5.82566	2.50145
5.81912	2.52044
5.81259	2.48422
5.80608	2.44911
5.79959	2.47481
5.79311	2.45421
5.78665	2.44645
5.78019	2.52682
5.77376	2.54314
5.76734	2.56204
5.76093	2.58459
5.75453	2.58167
5.74815	2.62348
5.74179	2.71051
5.73543	2.72488
5.7291	2.71678
5.72277	2.74321
5.71646	2.75841
5.71017	2.79574
5.70389	2.77479
5.69762	2.79166
5.69136	2.80416
5.68513	2.79644
5.6789	2.77995
5.67268	2.80011
5.66648	2.80206
5.6603	2.85761
5.65413	2.92028
5.64797	2.96992
5.64182	3.0036
5.63569	2.97188
5.62957	2.95484
5.62347	2.94784
5.61737	2.96448
5.61129	2.99863
5.60522	2.96076
5.59917	3.02901
5.59313	3.12074
5.5871	3.06813
5.58109	3.08966
5.57509	3.15906
5.5691	3.11327
5.56312	3.04643
5.55716	3.07141
5.55121	3.13834
5.54528	3.22576
5.53935	3.28976
5.53344	3.2791
5.52754	3.27
5.52166	3.30376
5.51578	3.28535
5.50992	3.27263
5.50407	3.31431
5.49823	3.33208
5.49241	3.37319
5.4866	3.42248
5.4808	3.43203
5.47501	3.46528
5.46923	3.5396
5.46347	3.58274
5.45772	3.53619
5.45198	3.49485
5.44625	3.59237
5.44054	3.58579
5.43484	3.52117
5.42914	3.598
5.42347	3.72962
5.4178	3.78808
5.41214	3.74664
5.4065	3.74688
5.40087	3.7579
5.39525	3.72753
5.38964	3.66943
5.38404	3.68866
5.37846	3.82707
5.37288	3.92592
5.36732	3.98114
5.36177	3.9934
5.35623	4.03565
5.35071	4.07896
5.34519	4.10202
5.33968	4.09075
5.33419	4.15957
5.32871	4.25494
5.32324	4.27921
5.31778	4.30308
5.31233	4.39907
5.30689	4.51219
5.30147	4.541
5.29605	4.47503
5.29065	4.46946
5.28525	4.56861
5.27987	4.64299
5.2745	4.68036
5.26914	4.72624
5.26379	4.76583
5.25845	4.73546
5.25312	4.80029
5.24781	4.88974
5.2425	4.99031
5.23721	5.10824
5.23192	5.18128
5.22665	5.19698
5.22138	5.21575
5.21613	5.27989
5.21089	5.33813
5.20566	5.42031
5.20044	5.53168
5.19522	5.56724
5.19002	5.60305
5.18483	5.65838
5.17965	5.70548
5.17448	5.85364
5.16933	5.93947
5.16418	5.96109
5.15904	6.05859
5.15391	6.15148
5.14879	6.2399
5.14368	6.32649
5.13859	6.37059
5.1335	6.49843
5.12842	6.66992
5.12335	6.72444
5.1183	6.76
5.11325	6.9141
5.10821	7.03602
5.10318	7.09421
5.09817	7.18532
5.09316	7.27669
5.08816	7.37599
5.08317	7.55349
5.07819	7.73965
5.07322	7.75255
5.06826	7.77514
5.06331	7.91849
5.05837	7.99344
5.05344	8.08459
5.04852	8.19394
5.04361	8.27901
5.03871	8.41135
5.03382	8.53033
5.02894	8.58606
5.02406	8.65131
5.0192	8.82007
5.01435	8.92554
5.0095	8.96688
5.00467	9.11265
4.99984	9.22547
4.99502	9.30218
4.99021	9.33122
4.98542	9.42979
4.98063	9.57409
4.97585	9.57292
4.97108	9.61472
4.96632	9.76596
4.96156	9.87264
4.95682	9.93465
4.95209	10.0013
4.94736	10.025
4.94264	10.109
4.93794	10.2136
4.93324	10.2866
4.92855	10.3866
4.92387	10.5033
4.9192	10.5234
4.91453	10.5527
4.90988	10.6286
4.90524	10.6219
4.9006	10.6444
4.89597	10.7283
4.89135	10.7684
4.88674	10.8781
4.88214	11.0149
4.87755	11.0916
4.87296	11.0998
4.86839	11.1488
4.86382	11.2317
4.85926	11.3483
4.85471	11.4492
4.85017	11.4636
4.84564	11.5169
4.84111	11.5705
4.8366	11.6037
4.83209	11.688
4.82759	11.7413
4.8231	11.892
4.81862	12.0319
4.81415	12.0117
4.80968	12.0309
4.80522	12.1978
4.80077	12.324
4.79633	12.3462
4.7919	12.333
4.78747	12.4275
4.78306	12.563
4.77865	12.6459
4.77425	12.7296
4.76986	12.8621
4.76547	12.9637
4.7611	12.9963
4.75673	13.141
4.75237	13.304
4.74802	13.3759
4.74367	13.4674
4.73934	13.5268
4.73501	13.6398
4.73069	13.7935
4.72638	13.8892
4.72207	14.0083
4.71777	14.1667
4.71348	14.3371
4.7092	14.4317
4.70493	14.5605
4.70066	14.7205
4.69641	14.8531
4.69216	15.0059
4.68791	15.1565
4.68368	15.2622
4.67945	15.4132
4.67523	15.576
4.67102	15.6963
4.66682	15.8301
4.66262	16.0293
4.65843	16.226
4.65425	16.431
4.65007	16.6713
4.64591	16.7884
4.64175	16.9364
4.6376	17.1509
4.63345	17.3876
4.62932	17.6418
4.62519	17.8385
4.62106	18.0467
4.61695	18.2635
4.61284	18.4584
4.60874	18.6635
4.60465	18.9146
4.60056	19.1387
4.59648	19.3335
4.59241	19.5998
4.58835	19.8938
4.58429	20.1144
4.58024	20.2992
4.5762	20.5433
4.57216	20.7985
4.56814	21.0615
4.56411	21.2931
4.5601	21.5341
4.55609	21.7893
4.55209	22.0839
4.5481	22.4074
4.54411	22.5812
4.54013	22.7685
4.53616	23.0186
4.5322	23.2649
4.52824	23.5145
4.52429	23.6967
4.52034	23.9803
4.51641	24.3469
4.51247	24.6615
4.50855	24.9102
4.50463	25.0867
4.50072	25.2933
4.49682	25.528
4.49292	25.7461
4.48903	26.0474
4.48515	26.4157
4.48127	26.6411
4.4774	26.8213
4.47354	27.0442
4.46968	27.1876
4.46584	27.3939
4.46199	27.7435
4.45815	28.0024
4.45432	28.195
4.4505	28.432
4.44668	28.7288
4.44287	28.9744
4.43907	29.192
4.43527	29.3665
4.43148	29.5927
4.4277	29.8234
4.42392	30.0468
4.42015	30.3094
4.41638	30.5359
4.41262	30.7229
4.40887	31.0021
4.40513	31.2942
4.40139	31.5468
4.39765	31.7259
4.39393	31.8985
4.39021	32.1071
4.38649	32.3539
4.38278	32.6155
4.37908	32.8883
4.37539	33.1601
4.3717	33.4106
4.36801	33.5874
4.36434	33.7603
4.36067	33.9743
4.357	34.2608
4.35335	34.5673
4.34969	34.8964
4.34605	35.0683
4.34241	35.2779
4.33877	35.5412
4.33514	35.8245
4.33152	36.047
4.32791	36.2859
4.3243	36.512
4.32069	36.8215
4.3171	37.042
4.31351	37.257
4.30992	37.5571
4.30634	37.785
4.30277	37.9923
4.2992	38.2193
4.29564	38.4486
4.29208	38.7588
4.28853	39.049
4.28499	39.2879
4.28145	39.5448
4.27792	39.8641
4.27439	40.1423
4.27087	40.5116
4.26735	40.856
4.26384	41.2064
4.26034	41.6576
4.25684	42.0566
4.25335	42.2666
4.24986	42.3534
4.24638	42.5297
4.24291	42.7057
4.23944	42.8985
4.23598	43.1391
4.23252	43.4477
4.22906	43.7773
4.22562	44.0257
4.22218	44.2957
4.21874	44.6499
4.21531	45.0206
4.21189	45.3319
4.20847	45.5875
4.20506	45.8359
4.20165	46.0703
4.19825	46.3284
4.19485	46.6385
4.19146	46.8773
4.18807	47.0853
4.18469	47.2873
4.18132	47.4824
4.17795	47.7157
4.17458	47.8642
4.17123	47.9659
4.16787	48.1704
4.16453	48.3821
4.16118	48.5376
4.15785	48.6894
4.15451	48.8507
4.15119	48.9819
4.14787	49.1154
4.14455	49.2513
4.14124	49.3554
4.13794	49.483
4.13464	49.6028
4.13134	49.6986
4.12805	49.8288
4.12477	50.0091
4.12149	50.1311
4.11822	50.2262
4.11495	50.4176
4.11168	50.5752
4.10843	50.6659
4.10517	50.746
4.10192	50.8584
4.09868	50.9445
4.09545	51.0644
4.09221	51.1734
4.08899	51.3047
4.08576	51.3864
4.08255	51.4482
4.07933	51.6649
4.07613	51.8532
4.07292	51.9726
4.06973	52.1031
4.06654	52.2455
4.06335	52.3318
4.06017	52.4381
4.05699	52.5868
4.05382	52.7379
4.05065	52.9027
4.04749	53.0268
4.04433	53.1181
4.04118	53.1759
4.03803	53.3473
4.03489	53.5363
4.03175	53.6698
4.02862	53.8243
4.02549	53.9698
4.02237	54.1008
4.01925	54.2666
4.01614	54.3845
4.01303	54.4854
4.00993	54.6143
4.00683	54.6991
4.00373	54.8257
4.00064	54.9801
3.99756	55.1215
3.99448	55.192
3.9914	55.227
3.98833	55.3229
3.98527	55.4522
3.98221	55.6035
3.97915	55.6839
3.9761	55.7354
3.97305	55.8051
3.97001	55.9188
3.96697	56.0855
3.96394	56.2153
3.96091	56.2607
3.95789	56.3857
3.95487	56.4801
3.95186	56.5109
3.94885	56.593
3.94584	56.6548
3.94284	56.7491
3.93984	56.858
3.93685	57.0079
3.93386	57.0671
3.93088	57.0885
3.9279	57.178
3.92493	57.2924
3.92196	57.3536
3.919	57.3311
3.91604	57.4154
3.91308	57.5607
3.91013	57.6842
3.90718	57.7661
3.90424	57.8272
3.9013	57.8899
3.89837	57.947
3.89544	58.0049
3.89252	58.0781
3.8896	58.0872
3.88668	58.1452
3.88377	58.2623
3.88086	58.3409
3.87796	58.4196
3.87506	58.628
3.87217	58.7102
3.86928	58.6248
3.86639	58.6117
3.86351	58.7264
3.86064	58.7863
3.85776	58.8049
3.8549	58.8742
3.85203	58.978
3.84917	59.0465
3.84631	59.0555
3.84346	59.038
3.84062	59.1462
3.83777	59.2122
3.83494	59.2236
3.8321	59.2713
3.82927	59.3625
3.82644	59.4526
3.82362	59.4473
3.82081	59.4548
3.81799	59.5092
3.81518	59.5591
3.81238	59.5783
3.80958	59.6087
3.80678	59.7143
3.80399	59.7643
3.8012	59.6926
3.79841	59.6212
3.79563	59.616
3.79286	59.6084
3.79008	59.6936
3.78731	59.7499
3.78455	59.786
3.78179	59.8185
3.77903	59.8572
3.77628	59.8582
3.77353	59.8261
3.77079	59.7769
3.76805	59.8176
3.76531	59.8303
3.76258	59.805
3.75985	59.8206
3.75713	59.84
3.7544	59.818
3.75169	59.8142
3.74898	59.7643
3.74627	59.687
3.74356	59.6246
3.74086	59.6058
3.73816	59.6247
3.73547	59.7011
3.73278	59.6669
3.7301	59.5755
3.72741	59.5754
3.72474	59.5367
3.72206	59.4266
3.71939	59.3596
3.71673	59.3592
3.71406	59.3336
3.71141	59.325
3.70875	59.2739
3.7061	59.1985
3.70345	59.1052
3.70081	59.0196
3.69817	58.9811
3.69553	58.9391
3.6929	58.9577
3.69027	58.9039
3.68765	58.8664
3.68503	58.8307
3.68241	58.8015
3.6798	58.7496
3.67719	58.6578
3.67458	58.583
3.67198	58.4735
3.66938	58.4197
3.66678	58.4096
3.66419	58.2804
3.66161	58.3182
3.65902	58.2887
3.65644	58.1487
3.65387	58.1139
3.65129	58.149
3.64872	57.9954
3.64616	57.8649
3.64359	57.7698
3.64103	57.7301
3.63848	57.682
3.63593	57.6202
3.63338	57.6
3.63084	57.5791
3.6283	57.4421
3.62576	57.3447
3.62322	57.2902
3.62069	57.1834
3.61817	57.1013
3.61564	56.9998
3.61312	56.9292
3.61061	56.8826
3.6081	56.8563
3.60559	56.7713
3.60308	56.6883
3.60058	56.6239
3.59808	56.5156
3.59558	56.4576
3.59309	56.4116
3.59061	56.319
3.58812	56.253
3.58564	56.1269
3.58316	55.9937
3.58069	55.8899
3.57822	55.7918
3.57575	55.7019
3.57328	55.6279
3.57082	55.5349
3.56836	55.4319
3.56591	55.3951
3.56346	55.3203
3.56101	55.2759
3.55857	55.1992
3.55613	55.0516
3.55369	54.8909
3.55126	54.7772
3.54883	54.6587
3.5464	54.5222
3.54397	54.352
3.54155	54.2479
3.53914	54.1634
3.53672	54.1044
3.53431	54.0339
3.5319	53.9652
3.5295	53.831
3.5271	53.6885
3.5247	53.5959
3.52231	53.4924
3.51991	53.3754
3.51753	53.2027
3.51514	53.0532
3.51276	52.9399
3.51038	52.8632
3.50801	52.7573
3.50563	52.5806
3.50327	52.4919
3.5009	52.4267
3.49854	52.2512
3.49618	52.1163
3.49382	52.0255
3.49147	51.8969
3.48912	51.7784
3.48677	51.7387
3.48443	51.6721
3.48209	51.5356
3.47975	51.4615
3.47742	51.3787
3.47509	51.2391
3.47276	51.086
3.47044	51.0224
3.46812	50.9823
3.4658	50.9594
3.46348	50.8217
3.46117	50.6562
3.45886	50.5435
3.45656	50.4786
3.45425	50.393
3.45195	50.3015
3.44966	50.1716
3.44736	50.0303
3.44507	49.9486
3.44279	49.7896
3.4405	49.6455
3.43822	49.56
3.43594	49.3846
3.43367	49.2497
3.43139	49.1143
3.42912	49.0101
3.42686	48.8841
3.42459	48.7225
3.42233	48.6187
3.42007	48.5259
3.41782	48.396
3.41557	48.281
3.41332	48.2142
3.41108	48.0787
3.40883	47.932
3.40659	47.7938
3.40435	47.7182
3.40212	47.7199
3.39989	47.7353
3.39766	47.6355
3.39544	47.5456
3.39322	47.5102
3.391	47.4769
3.38878	47.4038
3.38657	47.2698
3.38436	47.084
3.38215	46.9483
3.37994	46.8149
3.37774	46.6603
3.37554	46.6318
3.37335	46.5087
3.37115	46.3477
3.36896	46.4686
3.36678	46.4652
3.36459	46.303
3.36241	46.2685
3.36023	46.1861
3.35805	46.0988
3.35588	46.1092
3.35371	46.0585
3.35154	45.8934
3.34938	45.7955
3.34721	45.7391
3.34505	45.6993
3.3429	45.5814
3.34074	45.4519
3.33859	45.3948
3.33644	45.4269
3.3343	45.3651
3.33215	45.2378
3.33001	45.1868
3.32788	45.1331
3.32574	44.9955
3.32361	44.8577
3.32148	44.6653
3.31936	44.5588
3.31723	44.4741
3.31511	44.4108
3.31299	44.4141
3.31088	44.4208
3.30876	44.3194
3.30665	44.2313
3.30455	44.1374
3.30244	44.0939
3.30034	44.0935
3.29824	43.992
3.29614	43.8577
3.29405	43.7797
3.29196	43.6757
3.28987	43.6228
3.28778	43.5461
3.2857	43.3802
3.28362	43.3171
3.28154	43.2993
3.27946	43.1635
3.27739	43.067
3.27532	43.0275
3.27325	42.9666
3.27119	42.8572
3.26913	42.7891
3.26707	42.752
3.26501	42.7105
3.26295	42.7409
3.2609	42.707
3.25885	42.5363
3.2568	42.3387
3.25476	42.2204
3.25272	42.2427
3.25068	42.2401
3.24864	42.1645
3.24661	42.0404
3.24458	41.9055
3.24255	41.8619
3.24052	41.8976
3.2385	41.8544
3.23648	41.7093
3.23446	41.5611
3.23244	41.5261
3.23043	41.5223
3.22841	41.4324
3.2264	41.3362
3.2244	41.4007
3.22239	41.4081
3.22039	41.2998
3.21839	41.1732
3.2164	41.0612
3.2144	41.0831
3.21241	41.0991
3.21042	41.0045
3.20844	40.9775
3.20645	40.9888
3.20447	40.874
3.20249	40.6796
3.20051	40.6293
3.19854	40.5817
3.19657	40.5192
3.1946	40.5155
3.19263	40.4422
3.19067	40.4001
3.1887	40.4027
3.18674	40.3479
3.18479	40.2355
3.18283	40.1537
3.18088	40.1337
3.17893	40.1072
3.17698	40.166
3.17504	40.2616
3.17309	40.1687
3.17115	40.0389
3.16921	40.049
3.16728	40.0093
3.16534	39.9373
3.16341	39.9414
3.16148	39.9489
3.15956	39.9047
3.15763	39.8974
3.15571	39.7777
3.15379	39.7152
3.15187	39.7615
3.14996	39.7462
3.14805	39.7903
3.14614	39.7849
3.14423	39.762
3.14232	39.687
3.14042	39.6365
3.13852	39.6782
3.13662	39.6946
3.13472	39.7047
3.13283	39.7176
3.13094	39.733
3.12905	39.6533
3.12716	39.5457
3.12528	39.4871
3.12339	39.602
3.12151	39.7402
3.11964	39.7291
3.11776	39.7206
3.11589	39.7797
3.11401	39.7609
3.11214	39.6805
3.11028	39.5966
3.10841	39.6068
3.10655	39.6883
3.10469	39.7733
3.10283	39.7615
3.10098	39.6934
3.09912	39.7339
3.09727	39.8114
3.09542	39.8057
3.09358	39.8256
3.09173	39.8516
3.08989	39.8079
3.08805	39.8497
3.08621	39.8962
3.08437	39.8539
3.08254	39.9097
3.08071	39.9962
3.07888	40.0482
3.07705	40.0116
3.07523	39.9866
3.0734	40.0292
3.07158	40.054
3.06977	40.0759
3.06795	40.1054
3.06613	40.1779
3.06432	40.2485
3.06251	40.2854
3.0607	40.2591
3.0589	40.2438
3.0571	40.2476
3.05529	40.2604
3.05349	40.3042
3.0517	40.3592
3.0499	40.4035
3.04811	40.5315
3.04632	40.6295
3.04453	40.6885
3.04274	40.7728
3.04096	40.7269
3.03918	40.6729
3.0374	40.7186
3.03562	40.6843
3.03384	40.5917
3.03207	40.6152
3.03029	40.7121
3.02852	40.8385
3.02676	40.9588
3.02499	41.0569
3.02323	41.0865
3.02146	41.0516
3.0197	41.1377
3.01795	41.1205
3.01619	41.0801
3.01444	41.0936
3.01269	41.154
3.01094	41.2483
3.00919	41.2119
3.00744	41.3155
3.0057	41.4503
3.00396	41.485
3.00222	41.4666
3.00048	41.5281
2.99875	41.5998
2.99701	41.6149
2.99528	41.6811
2.99355	41.7384
2.99183	41.7256
2.9901	41.7232
2.98838	41.8235
2.98666	42.02
2.98494	42.1287
2.98322	42.0506
2.9815	42.0095
2.97979	42.0621
2.97808	42.2407
2.97637	42.3342
2.97466	42.2104
2.97295	42.2807
2.97125	42.4733
2.96955	42.4906
2.96785	42.7067
2.96615	42.7709
2.96446	42.7427
2.96276	42.8344
2.96107	42.8404
2.95938	42.798
2.95769	42.8994
2.95601	43.019
2.95432	43.1841
2.95264	43.2527
2.95096	43.258
2.94928	43.3549
2.9476	43.5708
2.94593	43.7967
2.94425	43.8666
2.94258	43.8849
2.94092	43.9849
2.93925	44.0137
2.93758	44.1056
2.93592	44.1445
2.93426	44.2469
2.9326	44.4113
2.93094	44.5937
2.92928	44.7317
2.92763	44.7015
2.92598	44.7873
2.92433	45.0277
2.92268	45.1979
2.92103	45.2531
2.91939	45.3477
2.91775	45.5625
2.9161	45.6825
2.91447	45.8075
2.91283	45.9512
2.91119	46.0168
2.90956	46.1725
2.90793	46.3245
2.9063	46.3451
2.90467	46.6372
2.90304	46.9344
2.90142	47.0029
2.89979	46.8831
2.89817	46.8319
2.89656	47.0389
2.89494	47.3659
2.89332	47.5129
2.89171	47.7211
2.8901	47.9516
2.88849	48.1928
2.88688	48.2588
2.88527	48.4013
2.88367	48.552
2.88206	48.595
2.88046	48.7235
2.87886	48.8507
2.87727	49.1067
2.87567	49.4046
2.87408	49.5235
2.87248	49.6511
2.87089	49.8617
2.8693	50.0242
2.86772	50.2252
2.86613	50.4545
2.86455	50.6116
2.86297	50.7586
2.86139	50.9264
2.85981	51.0123
2.85823	51.0353
2.85666	51.3114
2.85508	51.5887
2.85351	51.7787
2.85194	51.9787
2.85038	51.9949
2.84881	52.1109
2.84724	52.3591
2.84568	52.4779
2.84412	52.5952
2.84256	52.7885
2.841	52.9814
2.83945	53.1635
2.83789	53.3108
2.83634	53.5638
2.83479	53.7959
2.83324	53.8618
2.83169	53.9512
2.83015	54.0336
2.82861	54.1705
2.82706	54.3314
2.82552	54.4732
2.82398	54.4412
2.82245	54.5817
2.82091	54.9733
2.81938	55.1983
2.81784	55.0924
2.81631	55.1332
2.81479	55.3814
2.81326	55.5471
2.81173	55.5906
2.81021	55.6623
2.80869	55.8289
2.80716	56.0131
2.80565	56.2269
2.80413	56.6738
2.80261	56.8695
2.8011	56.7659
2.79959	56.8108
2.79808	56.9551
2.79657	57.1052
2.79506	57.2779
2.79355	57.3803
2.79205	57.5243
2.79055	57.7222
2.78904	58.1108
2.78754	58.5827
2.78605	58.703
2.78455	58.698
2.78306	58.9593
2.78156	59.1909
2.78007	59.1872
2.77858	59.29
2.77709	59.6467
2.77561	59.784
2.77412	60.1537
2.77264	60.5995
2.77116	61.0253
2.76968	61.2821
2.7682	61.6235
2.76672	61.7894
2.76524	61.8485
2.76377	62.3076
2.7623	62.5964
2.76083	62.4666
2.75936	62.6439
2.75789	63.2521
2.75642	64.3673
2.75496	65.1372
2.7535	64.7046
2.75203	64.7538
2.75057	64.9195
2.74912	65.0281
2.74766	65.4349
2.7462	65.7852
2.74475	66.0167
2.7433	66.4702
2.74185	67.2986
2.7404	67.9285
2.73895	67.8631
2.7375	67.5888
2.73606	67.8914
2.73462	68.1818
2.73318	67.9375
2.73174	68.01
2.7303	68.1719
2.72886	68.3641
2.72742	68.715
2.72599	69.3846
2.72456	70.1264
2.72313	69.9337
2.7217	70.4182
2.72027	71.1121
2.71884	70.4275
2.71742	70.2294
2.71599	70.39
2.71457	70.5289
2.71315	70.7944
2.71173	71.8155
2.71032	72.2634
2.7089	71.8656
2.70748	71.4509
2.70607	71.355
2.70466	71.4991
2.70325	71.8384
2.70184	72.2625
2.70043	72.4231
2.69903	72.477
2.69762	72.7714
2.69622	73.3212
2.69482	73.9253
2.69342	74.1732
2.69202	73.7846
2.69062	73.6996
2.68923	73.9016
2.68783	74.1835
2.68644	74.3122
2.68505	74.4613
2.68366	74.7304
2.68227	74.6648
2.68089	74.7559
2.6795	75.4322
2.67812	75.6359
2.67673	75.8791
2.67535	75.5055
2.67397	75.0644
2.6726	75.3243
2.67122	76.6809
2.66984	76.7734
2.66847	75.8864
2.6671	76.5836
2.66572	76.8151
2.66435	76.2931
2.66299	75.4514
2.66162	75.3829
2.66025	75.4466
2.65889	75.3023
2.65753	75.015
2.65616	75.2914
2.65481	75.3646
2.65345	75.5596
2.65209	75.69
2.65073	75.3634
2.64938	75.1006
2.64803	75.0776
2.64667	75.3628
2.64532	75.4381
2.64397	75.1984
2.64263	75.321
2.64128	75.3395
2.63994	75.1268
2.63859	74.8854
2.63725	74.9653
2.63591	75.1256
2.63457	75.4941
2.63323	75.4901
2.6319	75.7684
2.63056	76.5213
2.62923	75.8953
2.62789	75.5992
2.62656	75.9917
2.62523	75.4056
2.6239	75.1095
2.62258	75.2684
2.62125	76.113
2.61993	76.2984
2.6186	75.8213
2.61728	76.3002
2.61596	76.0737
2.61464	75.4256
2.61332	75.4236
2.61201	75.4141
2.61069	75.5245
2.60938	75.6058
2.60807	75.6653
2.60675	76.1095
2.60544	76.5768
2.60414	76.0854
2.60283	75.6478
2.60152	75.4847
2.60022	75.2745
2.59891	75.179
2.59761	75.5417
2.59631	76.6617
2.59501	77.9509
2.59371	76.9048
2.59242	75.5093
2.59112	75.1896
2.58983	75.4042
2.58853	75.6777
2.58724	75.7786
2.58595	75.4845
2.58466	75.8591
2.58338	76.0666
2.58209	75.5385
2.5808	75.403
2.57952	75.171
2.57824	75.3598
2.57695	75.653
2.57567	75.3403
2.5744	75.4811
2.57312	75.7437
2.57184	75.201
2.57057	75.3506
2.56929	75.5008
2.56802	75.1536
2.56675	74.978
2.56548	75.3349
2.56421	75.6437
2.56294	75.7327
2.56168	75.7546
2.56041	75.4069
2.55915	74.9922
2.55789	74.922
2.55662	74.9235
2.55536	74.9854
2.5541	75.0994
2.55285	75.1511
2.55159	75.0079
2.55034	74.8827
2.54908	74.8676
2.54783	74.9643
2.54658	74.9397
2.54533	74.9636
2.54408	75.0156
2.54283	75.0426
2.54159	74.8845
2.54034	74.843
2.5391	74.8634
2.53785	74.7638
2.53661	74.7789
2.53537	74.7967
2.53413	74.761
2.53289	74.8064
2.53166	74.8099
2.53042	74.8559
2.52919	74.8999
2.52795	74.8048
2.52672	74.6602
2.52549	74.592
2.52426	74.6831
2.52303	74.6957
2.52181	74.6478
2.52058	74.6231
2.51936	74.6471
2.51813	74.6004
2.51691	74.5988
2.51569	74.6716
2.51447	74.6189
2.51325	74.4751
2.51203	74.4301
2.51082	74.472
2.5096	74.611
2.50839	74.5975
2.50717	74.6361
2.50596	74.671
2.50475	74.6031
2.50354	74.5354
2.50233	74.5229
2.50113	74.5759
2.49992	74.5921
2.49872	74.6014
2.49751	74.6358
2.49631	74.5673
2.49511	74.5381
2.49391	74.5281
2.49271	74.4843
2.49151	74.5655
2.49031	74.5756
2.48912	74.4955
2.48792	74.5113
2.48673	74.5766
2.48554	74.6209
2.48435	74.6852
2.48316	74.6468
2.48197	74.5796
2.48078	74.6455
2.4796	74.6385
2.47841	74.6296
2.47723	74.5987
2.47604	74.5562
2.47486	74.6935
2.47368	74.8181
2.4725	74.7421
2.47132	74.525
2.47014	74.451
2.46897	74.5318
2.46779	74.5373
2.46662	74.5798
2.46545	74.644
2.46427	74.6441
2.4631	74.6459
2.46193	74.6644
2.46077	74.7212
2.4596	74.7011
2.45843	74.6855
2.45727	74.6483
2.4561	74.6139
2.45494	74.6674
2.45378	74.6083
2.45262	74.6753
2.45146	74.6929
2.4503	74.556
2.44914	74.5803
2.44799	74.636
2.44683	74.6482
2.44568	74.5592
2.44452	74.6603
2.44337	74.7423
2.44222	74.6911
2.44107	74.6298
2.43992	74.5548
2.43877	74.543
2.43763	74.5082
2.43648	74.4489
2.43534	74.4851
2.43419	74.6652
2.43305	74.8355
2.43191	74.8718
2.43077	74.7055
2.42963	74.5652
2.42849	74.5146
2.42736	74.5268
2.42622	74.5689
2.42509	74.5107
2.42395	74.5137
2.42282	74.6963
2.42169	74.7636
2.42056	74.7444
2.41943	74.6707
2.4183	74.6267
2.41717	74.4577
2.41605	74.5089
2.41492	74.5886
2.4138	74.5827
2.41267	74.6533
2.41155	74.7085
2.41043	74.6005
2.40931	74.6101
2.40819	74.67
2.40707	74.4996
2.40595	74.433
2.40484	74.589
2.40372	74.697
2.40261	74.6444
2.4015	74.6234
2.40039	74.594
2.39928	74.4752
2.39817	74.4037
2.39706	74.4945
2.39595	74.6605
2.39484	74.5894
2.39374	74.3915
2.39263	74.393
2.39153	74.4789
2.39043	74.5407
2.38932	74.524
2.38822	74.4477
2.38712	74.4864
2.38603	74.4315
2.38493	74.2966
2.38383	74.3566
2.38274	74.4575
2.38164	74.4923
2.38055	74.466
2.37946	74.3788
2.37836	74.3736
2.37727	74.4522
2.37618	74.484
2.3751	74.5302
2.37401	74.5371
2.37292	74.6663
2.37184	74.6712
2.37075	74.5225
2.36967	74.4993
2.36859	74.4678
2.3675	74.3898
2.36642	74.4185
2.36534	74.4059
2.36427	74.3378
2.36319	74.4464
2.36211	74.6182
2.36104	74.4505
2.35996	74.3033
2.35889	74.3584
2.35781	74.4891
2.35674	74.5107
2.35567	74.4446
2.3546	74.3942
2.35353	74.4055
2.35247	74.3813
2.3514	74.4649
2.35033	74.5406
2.34927	74.4262
2.3482	74.2869
2.34714	74.3817
2.34608	74.5264
2.34502	74.5185
2.34396	74.4229
2.3429	74.2455
2.34184	74.1915
2.34078	74.267
2.33973	74.3726
2.33867	74.3876
2.33762	74.2975
2.33656	74.2573
2.33551	74.2986
2.33446	74.3688
2.33341	74.4434
2.33236	74.3557
2.33131	74.3473
2.33026	74.3693
2.32922	74.3119
2.32817	74.3347
2.32712	74.3256
2.32608	74.1701
2.32504	74.1637
2.324	74.3309
2.32295	74.3238
2.32191	74.0828
2.32087	74.0433
2.31984	74.0853
2.3188	74.1368
2.31776	74.1841
2.31673	74.2238
2.31569	74.1988
2.31466	74.1029
2.31362	73.9693
2.31259	73.986
2.31156	73.9946
2.31053	74.0826
2.3095	74.2698
2.30847	74.2606
2.30745	74.2703
2.30642	74.185
2.3054	74.0458
2.30437	73.9975
2.30335	73.9985
2.30232	74.0621
2.3013	74.0272
2.30028	74.0447
2.29926	74.0874
2.29824	73.991
2.29722	73.9053
2.29621	73.9298
2.29519	74.0424
2.29417	74.0898
2.29316	74.0351
2.29215	74.0055
2.29113	74.0612
2.29012	74.1083
2.28911	73.9695
2.2881	73.9319
2.28709	74.0786
2.28608	74.1242
2.28507	74.0957
2.28407	74.155
2.28306	74.2111
2.28206	74.1065
2.28105	73.962
2.28005	73.8737
2.27905	73.913
2.27805	73.9861
2.27705	74.0295
2.27605	73.9858
2.27505	74.0519
2.27405	74.1296
2.27305	74.0996
2.27206	74.0553
2.27106	73.9481
2.27007	73.8489
2.26907	73.8676
2.26808	73.8713
2.26709	73.8743
2.2661	74.0111
2.26511	73.9044
2.26412	73.9458
2.26313	73.9576
2.26214	73.9287
2.26116	73.9114
2.26017	73.8002
2.25919	73.949
2.2582	74.0453
2.25722	74.0063
2.25624	73.9588
2.25526	73.8459
2.25428	73.7881
2.2533	73.8849
2.25232	73.9296
2.25134	73.8588
2.25036	73.8697
2.24939	73.985
2.24841	73.9157
2.24744	73.8081
2.24646	73.8941
2.24549	73.9025
2.24452	73.8494
2.24355	73.7926
2.24257	73.8327
2.24161	73.9111
2.24064	73.7683
2.23967	73.8345
2.2387	73.9738
2.23774	73.7246
2.23677	73.6483
2.23581	73.7642
2.23484	73.7776
2.23388	73.7015
2.23292	73.8729
2.23196	73.9729
2.231	73.9033
2.23004	73.8167
2.22908	73.9251
2.22812	73.9892
2.22716	74.0389
2.22621	73.9264
2.22525	73.7446
2.2243	73.8791
2.22334	73.8735
2.22239	73.7891
2.22144	73.733
2.22049	73.6484
2.21953	73.6258
2.21859	73.7063
2.21764	73.739
2.21669	73.7806
2.21574	73.7858
2.21479	73.8201
2.21385	73.7982
2.2129	73.7855
2.21196	73.7606
2.21102	73.6977
2.21007	73.7904
2.20913	73.8859
2.20819	73.9813
2.20725	73.9887
2.20631	73.8535
2.20537	73.8695
2.20444	73.9501
2.2035	73.8671
2.20256	73.7543
2.20163	73.6776
2.20069	73.5826
2.19976	73.5321
2.19883	73.7459
2.19789	73.9114
2.19696	73.8845
2.19603	73.8137
2.1951	73.7101
2.19417	73.6443
2.19325	73.8065
2.19232	73.9422
2.19139	74.03
2.19047	73.9311
2.18954	73.6552
2.18862	73.6823
2.18769	73.8036
2.18677	73.684
2.18585	73.7112
2.18493	73.7086
2.18401	73.7906
2.18309	73.7987
2.18217	73.7763
2.18125	73.8055
2.18033	73.658
2.17942	73.6867
2.1785	73.8436
2.17759	73.8684
2.17667	73.9577
2.17576	73.9219
2.17485	73.8371
2.17393	73.7795
2.17302	73.5728
2.17211	73.7245
2.1712	73.9597
2.17029	73.8863
2.16939	73.7391
2.16848	73.7556
2.16757	73.7328
2.16667	73.7193
2.16576	73.7459
2.16486	73.6658
2.16395	73.7409
2.16305	73.8535
2.16215	73.6739
2.16125	73.508
2.16035	73.6188
2.15945	73.7188
2.15855	73.8129
2.15765	73.7922
2.15675	73.713
2.15586	73.827
2.15496	73.7255
2.15406	73.5229
2.15317	73.5589
2.15228	73.7273
2.15138	73.7922
2.15049	73.8346
2.1496	73.9257
2.14871	73.9517
2.14782	73.9084
2.14693	73.8782
2.14604	73.8159
2.14515	73.9338
2.14427	74.0644
2.14338	74.0081
2.14249	73.7979
2.14161	73.7636
2.14072	73.8602
2.13984	73.9205
2.13896	73.8836
2.13808	73.8883
2.13719	73.8012
2.13631	73.7971
2.13543	73.8099
2.13455	73.8296
2.13368	73.8714
2.1328	73.8794
2.13192	73.8687
2.13105	73.822
2.13017	73.7834
2.1293	73.7936
2.12842	73.743
2.12755	73.8646
2.12668	73.9239
2.1258	73.7045
2.12493	73.6652
2.12406	73.63
2.12319	73.737
2.12232	73.7857
2.12145	73.8165
2.12059	73.8254
2.11972	73.8852
2.11885	73.7761
2.11799	73.7938
2.11712	73.9198
2.11626	73.8032
2.1154	73.6869
2.11453	73.7219
2.11367	73.621
2.11281	73.711
2.11195	73.8473
2.11109	73.9761
2.11023	74.0033
2.10937	73.9629
2.10851	73.9755
2.10766	73.7829
2.1068	73.5705
2.10594	73.6463
2.10509	73.7614
2.10423	73.9865
2.10338	74.1556
2.10253	73.8841
2.10168	73.6705
2.10082	73.6319
2.09997	73.7478
2.09912	73.8692
2.09827	74.1788
2.09742	74.117
2.09658	74.003
2.09573	74.0672
2.09488	74.012
2.09404	73.8141
2.09319	73.6343
2.09235	73.5317
2.0915	73.6121
2.09066	73.8682
2.08982	74.0945
2.08897	74.0542
2.08813	73.8927
2.08729	73.9114
2.08645	73.7682
2.08561	73.781
2.08477	73.7226
2.08394	74.1011
2.0831	74.373
2.08226	74.1474
2.08143	73.9788
2.08059	74.2005
2.07976	74.0727
2.07892	73.6617
2.07809	73.8894
2.07726	74.0419
2.07643	73.6
2.07559	73.6836
2.07476	73.9135
2.07393	74.1194
2.0731	73.8497
2.07228	73.6323
2.07145	73.6754
2.07062	73.8657
2.06979	74.1182
2.06897	74.0544
2.06814	73.8729
2.06732	73.8911
2.06649	73.8602
2.06567	73.7292
2.06485	73.8736
2.06403	73.9794
2.0632	73.9717
2.06238	73.8777
2.06156	73.7606
2.06074	73.8266
2.05993	73.8575
2.05911	73.9309
2.05829	74.0449
2.05747	74.0041
2.05666	73.9394
2.05584	73.8971
2.05503	73.9847
2.05421	73.866
2.0534	73.804
2.05259	74.1372
2.05177	74.0509
2.05096	73.7023
2.05015	73.7672
2.04934	74.0583
2.04853	74.1116
2.04772	74.0334
2.04691	73.9549
2.04611	73.8505
2.0453	73.941
2.04449	73.8509
2.04369	73.8653
2.04288	74.0692
2.04208	73.9435
2.04127	73.8178
2.04047	73.8901
2.03967	74.028
2.03886	73.9745
2.03806	73.9548
2.03726	73.8711
2.03646	73.8205
2.03566	73.9481
2.03486	73.9297
2.03407	73.7569
2.03327	73.8482
2.03247	73.894
2.03167	73.894
2.03088	73.8089
2.03008	73.9114
2.02929	73.9725
2.0285	74.0107
2.0277	74.1104
2.02691	74.0005
2.02612	73.8996
2.02533	73.828
2.02453	73.9837
2.02374	74.0449
2.02295	73.9853
2.02217	73.881
2.02138	73.7356
2.02059	73.8268
2.0198	73.9766
2.01902	73.984
2.01823	74.0169
2.01744	73.9987
2.01666	73.9768
2.01588	74.0926
2.01509	73.9526
2.01431	73.9609
2.01353	73.9546
2.01275	73.9078
2.01196	74.019
2.01118	74.2386
2.0104	74.1473
2.00963	73.694
2.00885	73.5157
2.00807	73.6003
2.00729	73.8562
2.00651	74.1028
2.00574	74.0799
2.00496	73.9564
2.00419	73.8187
2.00341	73.6834
2.00264	73.7817
2.00187	73.9017
2.00109	73.8947
2.00032	73.7804
