Name: Sepiolite Mg_4Si_6O_15(OH)_2.6H_2O
Type: Mineral
Class: Silicates
Subclass: Phyllosilicates
Particle Size: 45-125um
Sample No.: PS-5A
Owner: JPL
Wavelength range: IR
Origin: USA, Nevada, Two Crows
Collected by Clay Mineral Society
Description: 





Measurement: Hemispherical reflectance
First Column: X
Second Column: Y
X Units:  Wavelength (micrometers)
Y Units:  Reflectance (percent)
First X Value: 15.3853
Last X Value: 2.00032
Number of X Values: 2256
Additional information: ps05aa.txt
 
15.3853	0.63459
15.3397	0.556739
15.2945	0.217783
15.2495	0.143088
15.2048	0.34102
15.1603	0.218961
15.1161	0.182341
15.0722	0.210882
15.0285	0.257872
14.9851	0.385039
14.9419	0.368819
14.8989	0.36748
14.8563	0.37218
14.8138	0.308288
14.7716	0.20657
14.7296	0.200271
14.6879	0.0886936
14.6464	0.0793874
14.6052	0.275635
14.5641	0.328771
14.5233	0.234025
14.4828	0.189956
14.4424	0.335447
14.4023	0.559471
14.3624	0.648416
14.3227	0.47611
14.2833	0.351741
14.244	0.218813
14.205	0.271933
14.1662	0.257859
14.1276	0.132661
14.0892	0.276051
14.051	0.399246
14.0131	0.453194
13.9753	0.390707
13.9377	0.126842
13.9004	0.136807
13.8632	0.283795
13.8262	0.335479
13.7895	0.474059
13.7529	0.46831
13.7165	0.367653
13.6803	0.356074
13.6443	0.566944
13.6085	0.761955
13.5729	0.635839
13.5374	0.522483
13.5022	0.527707
13.4671	0.551168
13.4322	0.545888
13.3975	0.565283
13.363	0.469081
13.3286	0.491363
13.2944	0.588643
13.2604	0.556032
13.2266	0.613551
13.193	0.635992
13.1595	0.360813
13.1262	0.408901
13.093	0.55915
13.06	0.459274
13.0272	0.622214
12.9946	0.669637
12.9621	0.545168
12.9298	0.526241
12.8976	0.498451
12.8656	0.552672
12.8337	0.699326
12.8021	0.679038
12.7705	0.682923
12.7391	0.646516
12.7079	0.543532
12.6769	0.434165
12.6459	0.421947
12.6152	0.386981
12.5845	0.574636
12.5541	0.74703
12.5238	0.741494
12.4936	0.780747
12.4635	0.764699
12.4337	0.879498
12.4039	1.00813
12.3743	0.941618
12.3448	0.936105
12.3155	0.953876
12.2863	0.901456
12.2573	1.05062
12.2284	1.23763
12.1996	1.27252
12.171	1.35637
12.1425	1.47341
12.1141	1.42211
12.0859	1.26998
12.0578	1.37914
12.0298	1.57464
12.0019	1.53619
11.9742	1.64825
11.9466	1.82973
11.9192	1.85182
11.8918	1.81665
11.8646	1.99397
11.8375	2.0872
11.8106	2.01414
11.7837	1.87445
11.757	1.67214
11.7304	1.69458
11.7039	1.77071
11.6776	1.85017
11.6513	1.85571
11.6252	1.82618
11.5992	1.83547
11.5733	1.84036
11.5475	1.81711
11.5219	1.95977
11.4963	1.85411
11.4709	1.74003
11.4455	1.75975
11.4203	1.83806
11.3952	1.96092
11.3702	2.03718
11.3454	2.03449
11.3206	2.0113
11.2959	2.05274
11.2714	2.17316
11.2469	2.32694
11.2226	2.46221
11.1983	2.46844
11.1742	2.51198
11.1502	2.56617
11.1263	2.60546
11.1024	2.72842
11.0787	2.81476
11.0551	2.83358
11.0316	2.8225
11.0081	2.73994
10.9848	2.72379
10.9616	2.7337
10.9385	2.79151
10.9154	2.85358
10.8925	2.84585
10.8697	2.94195
10.8469	3.07526
10.8243	3.08764
10.8017	2.91649
10.7793	2.75586
10.7569	2.74921
10.7346	2.71517
10.7125	2.80695
10.6904	2.81145
10.6684	2.61479
10.6465	2.58612
10.6247	2.57227
10.6029	2.54697
10.5813	2.45453
10.5597	2.40178
10.5383	2.4358
10.5169	2.49709
10.4956	2.49199
10.4744	2.45258
10.4533	2.56823
10.4323	2.64789
10.4113	2.63426
10.3904	2.69853
10.3697	2.81238
10.349	2.91452
10.3284	3.03135
10.3078	3.30244
10.2874	3.56624
10.267	3.76445
10.2467	3.9537
10.2265	3.99361
10.2064	3.99114
10.1863	3.88983
10.1663	3.52019
10.1464	3.16635
10.1266	2.94284
10.1069	2.75753
10.0872	2.55774
10.0676	2.36165
10.0481	2.24204
10.0287	2.39924
10.0093	2.71162
9.99005	2.90598
9.97084	3.13786
9.95169	3.46017
9.93263	3.82122
9.91364	4.1733
9.89472	4.47182
9.87587	4.63591
9.8571	4.78304
9.83839	4.92029
9.81976	5.10098
9.80119	5.401
9.78271	5.61615
9.76428	5.75824
9.74592	5.95144
9.72764	6.12175
9.70943	6.31465
9.69128	6.4115
9.6732	6.39157
9.65518	6.39715
9.63724	6.34532
9.61935	6.1369
9.60155	5.75032
9.5838	5.47341
9.56611	5.32092
9.5485	5.06476
9.53094	4.84466
9.51345	4.68466
9.49604	4.59938
9.47867	4.59164
9.46137	4.66176
9.44414	4.62968
9.42697	4.38671
9.40986	3.93797
9.39281	3.62328
9.37583	3.25207
9.35891	2.82295
9.34204	2.60854
9.32524	2.28891
9.3085	1.81004
9.29182	1.56708
9.27519	1.54204
9.25863	1.5324
9.24213	1.49814
9.22568	1.42607
9.2093	1.41815
9.19297	1.56855
9.17669	1.79375
9.16048	1.76159
9.14433	1.73933
9.12823	1.7902
9.11218	1.70352
9.0962	1.67459
9.08027	1.67958
9.06439	1.49947
9.04858	1.21419
9.03281	1.10114
9.0171	1.0406
9.00145	1.1698
8.98585	1.11467
8.9703	0.955552
8.9548	0.791843
8.93937	0.794595
8.92398	0.889438
8.90865	0.974074
8.89337	0.953044
8.87814	0.93821
8.86296	0.800497
8.84784	0.762239
8.83277	0.591591
8.81774	0.511913
8.80277	0.566808
8.78786	0.442483
8.77298	0.291586
8.75816	0.297519
8.7434	0.305755
8.72868	0.238456
8.714	0.182583
8.69938	0.18751
8.68481	0.252046
8.67029	0.290686
8.65581	0.243972
8.64139	0.199733
8.62701	0.145592
8.61268	0.148246
8.5984	0.121249
8.58416	0.0221957
8.56997	0.0763093
8.55583	0.170069
8.54174	0.17386
8.52769	0.00433974
8.51368	-0.0867787
8.49973	-0.0623036
8.48582	0.0308171
8.47195	0.192612
8.45813	0.0714524
8.44436	0.0711538
8.43062	0.203052
8.41693	0.22775
8.4033	0.167747
8.3897	0.03176
8.37614	-0.0355021
8.36264	0.111401
8.34917	0.10201
8.33574	0.00640778
8.32236	0.0612032
8.30903	0.109044
8.29573	0.0413478
8.28248	0.0128687
8.26927	0.131106
8.2561	0.148681
8.24298	0.0801255
8.2299	0.0955638
8.21685	0.184429
8.20385	0.275947
8.19089	0.14023
8.17797	-0.0171243
8.16509	0.061251
8.15225	0.132843
8.13946	0.164967
8.1267	0.133755
8.11398	0.155108
8.10131	0.0356502
8.08867	-0.00854246
8.07606	0.156134
8.0635	0.187099
8.05099	0.0958225
8.0385	0.128397
8.02606	0.109247
8.01366	0.0861579
8.00129	0.0684854
7.98896	0.106355
7.97667	0.0742868
7.96442	0.0378154
7.9522	0.0704137
7.94002	0.0401554
7.92788	0.0844022
7.91578	0.143726
7.90371	0.150724
7.89168	0.210762
7.87969	0.270532
7.86773	0.261575
7.85581	0.195109
7.84392	0.193999
7.83207	0.190842
7.82026	0.236697
7.80849	0.344501
7.79674	0.329955
7.78503	0.222729
7.77337	0.171834
7.76173	0.288583
7.75012	0.345618
7.73856	0.281788
7.72703	0.362536
7.71553	0.39055
7.70406	0.461486
7.69263	0.468691
7.68123	0.36319
7.66987	0.313512
7.65855	0.341794
7.64725	0.401802
7.63598	0.454001
7.62475	0.490236
7.61356	0.553728
7.60239	0.574203
7.59126	0.545829
7.58017	0.523017
7.5691	0.48641
7.55806	0.565352
7.54707	0.667226
7.5361	0.610918
7.52516	0.61984
7.51425	0.690323
7.50338	0.697343
7.49253	0.729182
7.48172	0.771678
7.47094	0.767169
7.46019	0.769224
7.44947	0.784879
7.43879	0.734472
7.42813	0.701576
7.4175	0.761717
7.4069	0.930618
7.39634	0.922903
7.3858	0.81887
7.37529	0.827182
7.36482	0.812396
7.35437	0.848024
7.34396	0.920927
7.33357	0.983813
7.32321	0.960893
7.31288	0.973162
7.30258	1.00435
7.29231	1.03903
7.28207	1.04573
7.27185	1.13653
7.26167	1.17375
7.25152	1.16174
7.24139	1.2414
7.23129	1.24728
7.22122	1.19579
7.21117	1.29734
7.20116	1.34176
7.19117	1.33399
7.18121	1.3392
7.17128	1.32779
7.16137	1.32458
7.1515	1.34212
7.14164	1.36763
7.13182	1.4286
7.12203	1.42727
7.11225	1.51498
7.10251	1.61442
7.0928	1.6241
7.08311	1.65091
7.07344	1.65916
7.06381	1.69348
7.0542	1.72852
7.04461	1.70664
7.03506	1.72165
7.02552	1.71946
7.01601	1.72105
7.00653	1.78156
6.99708	1.81377
6.98765	1.90765
6.97824	1.96706
6.96886	1.92407
6.95951	1.88878
6.95018	1.93343
6.94087	1.97013
6.9316	1.93922
6.92234	1.98401
6.91311	2.08852
6.90391	2.16196
6.89473	2.1451
6.88557	2.09691
6.87644	2.1817
6.86733	2.28067
6.85824	2.21564
6.84918	2.2069
6.84015	2.2231
6.83114	2.27599
6.82215	2.36666
6.81319	2.35357
6.80424	2.40142
6.79532	2.44811
6.78643	2.46814
6.77756	2.50633
6.76871	2.5503
6.75989	2.61855
6.75109	2.61914
6.74231	2.57526
6.73355	2.61227
6.72482	2.6215
6.71611	2.59857
6.70742	2.64711
6.69875	2.71656
6.69011	2.71506
6.68149	2.7686
6.67289	2.77509
6.66431	2.72673
6.65576	2.72475
6.64722	2.763
6.63871	2.77079
6.63022	2.78807
6.62175	2.87669
6.61331	2.88484
6.60488	2.84365
6.59648	2.89068
6.5881	2.91099
6.57974	2.96143
6.5714	2.94028
6.56308	2.79135
6.55478	2.72869
6.54651	2.82487
6.53825	2.8955
6.53001	2.88243
6.5218	2.95128
6.51361	2.93944
6.50544	2.88829
6.49729	2.87155
6.48915	2.90668
6.48104	2.8843
6.47295	2.88583
6.46488	2.91226
6.45683	2.89234
6.4488	2.89469
6.44079	2.84798
6.4328	2.84085
6.42482	2.84191
6.41687	2.86642
6.40894	2.8259
6.40103	2.8046
6.39314	2.84503
6.38526	2.71774
6.37741	2.64554
6.36957	2.58956
6.36176	2.51215
6.35396	2.4253
6.34618	2.38317
6.33843	2.34862
6.33069	2.26136
6.32297	2.22286
6.31527	2.20666
6.30758	2.05301
6.29992	1.91726
6.29227	1.84867
6.28465	1.76627
6.27704	1.64237
6.26945	1.55813
6.26188	1.53118
6.25432	1.40616
6.24679	1.26025
6.23927	1.18276
6.23177	1.06906
6.22429	1.03408
6.21683	0.922963
6.20938	0.735151
6.20195	0.627842
6.19454	0.579459
6.18715	0.569913
6.17978	0.528422
6.17242	0.422881
6.16508	0.450483
6.15776	0.570087
6.15045	0.603035
6.14317	0.493997
6.1359	0.392777
6.12864	0.453289
6.12141	0.526126
6.11419	0.469446
6.10699	0.382419
6.0998	0.370312
6.09263	0.447137
6.08549	0.478056
6.07835	0.36673
6.07123	0.354826
6.06413	0.388182
6.05705	0.357776
6.04998	0.308413
6.04293	0.386496
6.0359	0.442805
6.02888	0.356098
6.02187	0.268825
6.01489	0.2483
6.00792	0.289504
6.00096	0.313648
5.99403	0.290274
5.98711	0.370533
5.9802	0.282837
5.97331	0.176669
5.96644	0.235493
5.95958	0.352333
5.95274	0.416565
5.94591	0.527883
5.9391	0.5892
5.9323	0.6594
5.92552	0.73888
5.91876	0.801674
5.91201	0.839402
5.90528	0.884864
5.89856	1.04149
5.89186	1.12755
5.88517	1.27036
5.8785	1.43629
5.87184	1.54753
5.8652	1.66901
5.85857	1.78938
5.85196	2.03059
5.84536	2.2274
5.83878	2.30427
5.83221	2.45602
5.82566	2.63316
5.81912	2.78742
5.81259	2.94942
5.80608	3.14767
5.79959	3.25782
5.79311	3.32092
5.78665	3.44334
5.78019	3.61646
5.77376	3.82995
5.76734	3.9965
5.76093	4.06027
5.75453	4.12934
5.74815	4.16664
5.74179	4.19268
5.73543	4.27262
5.7291	4.36952
5.72277	4.46384
5.71646	4.49743
5.71017	4.64398
5.70389	4.74433
5.69762	4.73752
5.69136	4.7977
5.68513	4.85462
5.6789	4.85279
5.67268	4.87539
5.66648	4.94254
5.6603	5.02526
5.65413	5.005
5.64797	5.0431
5.64182	5.07395
5.63569	5.05854
5.62957	5.09874
5.62347	5.2013
5.61737	5.25791
5.61129	5.25383
5.60522	5.2252
5.59917	5.23954
5.59313	5.28391
5.5871	5.34797
5.58109	5.46168
5.57509	5.57255
5.5691	5.57108
5.56312	5.58454
5.55716	5.6668
5.55121	5.76799
5.54528	5.85488
5.53935	5.94947
5.53344	5.95954
5.52754	5.99658
5.52166	6.12128
5.51578	6.15547
5.50992	6.1883
5.50407	6.29084
5.49823	6.40931
5.49241	6.5116
5.4866	6.6923
5.4808	6.81455
5.47501	6.80294
5.46923	6.89577
5.46347	7.04831
5.45772	7.20391
5.45198	7.31266
5.44625	7.36073
5.44054	7.41683
5.43484	7.53031
5.42914	7.64957
5.42347	7.74151
5.4178	7.83492
5.41214	7.92576
5.4065	7.88922
5.40087	7.91559
5.39525	8.03219
5.38964	8.09276
5.38404	8.09551
5.37846	8.09909
5.37288	8.10384
5.36732	8.1195
5.36177	8.09369
5.35623	8.00971
5.35071	8.00266
5.34519	8.06542
5.33968	8.07871
5.33419	8.11179
5.32871	8.16128
5.32324	8.06147
5.31778	8.0059
5.31233	7.96452
5.30689	7.90917
5.30147	7.89456
5.29605	7.79819
5.29065	7.68173
5.28525	7.71499
5.27987	7.7593
5.2745	7.72428
5.26914	7.69972
5.26379	7.61082
5.25845	7.60452
5.25312	7.58902
5.24781	7.54745
5.2425	7.55581
5.23721	7.62233
5.23192	7.64268
5.22665	7.63579
5.22138	7.71645
5.21613	7.77062
5.21089	7.8331
5.20566	8.00396
5.20044	8.16663
5.19522	8.2423
5.19002	8.42605
5.18483	8.57325
5.17965	8.63086
5.17448	8.71654
5.16933	8.81584
5.16418	8.88498
5.15904	8.98111
5.15391	9.12542
5.14879	9.2366
5.14368	9.23732
5.13859	9.27333
5.1335	9.31796
5.12842	9.35488
5.12335	9.42648
5.1183	9.50147
5.11325	9.59537
5.10821	9.60274
5.10318	9.59604
5.09817	9.65599
5.09316	9.72565
5.08816	9.67203
5.08317	9.64101
5.07819	9.67354
5.07322	9.65904
5.06826	9.5752
5.06331	9.52854
5.05837	9.55772
5.05344	9.61845
5.04852	9.55601
5.04361	9.39023
5.03871	9.36046
5.03382	9.36653
5.02894	9.39922
5.02406	9.52013
5.0192	9.56747
5.01435	9.55357
5.0095	9.60748
5.00467	9.63178
4.99984	9.60907
4.99502	9.70395
4.99021	9.84116
4.98542	9.93703
4.98063	9.98533
4.97585	10.0016
4.97108	10.0274
4.96632	10.0971
4.96156	10.1133
4.95682	10.1413
4.95209	10.1335
4.94736	10.1455
4.94264	10.1723
4.93794	10.1988
4.93324	10.2305
4.92855	10.211
4.92387	10.2761
4.9192	10.2889
4.91453	10.238
4.90988	10.2972
4.90524	10.311
4.9006	10.2651
4.89597	10.1896
4.89135	10.1245
4.88674	10.1435
4.88214	10.2198
4.87755	10.2439
4.87296	10.2839
4.86839	10.3091
4.86382	10.3337
4.85926	10.3705
4.85471	10.3547
4.85017	10.3901
4.84564	10.4742
4.84111	10.4869
4.8366	10.4053
4.83209	10.36
4.82759	10.4095
4.8231	10.4562
4.81862	10.456
4.81415	10.4275
4.80968	10.416
4.80522	10.5521
4.80077	10.6306
4.79633	10.6681
4.7919	10.7363
4.78747	10.8012
4.78306	10.7687
4.77865	10.857
4.77425	10.9626
4.76986	10.9921
4.76547	11.0499
4.7611	11.1402
4.75673	11.2223
4.75237	11.2064
4.74802	11.2108
4.74367	11.3147
4.73934	11.3819
4.73501	11.4279
4.73069	11.4911
4.72638	11.5807
4.72207	11.6698
4.71777	11.7447
4.71348	11.7744
4.7092	11.8713
4.70493	11.954
4.70066	11.969
4.69641	11.9755
4.69216	12.0821
4.68791	12.1979
4.68368	12.2747
4.67945	12.2927
4.67523	12.3566
4.67102	12.4802
4.66682	12.5858
4.66262	12.6652
4.65843	12.6945
4.65425	12.802
4.65007	12.9814
4.64591	13.0472
4.64175	13.0405
4.6376	13.1212
4.63345	13.1837
4.62932	13.2247
4.62519	13.2969
4.62106	13.409
4.61695	13.5396
4.61284	13.5899
4.60874	13.6091
4.60465	13.6863
4.60056	13.7989
4.59648	13.8111
4.59241	13.7651
4.58835	13.8393
4.58429	13.8994
4.58024	13.9841
4.5762	14.1118
4.57216	14.1334
4.56814	14.1303
4.56411	14.1422
4.5601	14.1541
4.55609	14.3299
4.55209	14.4135
4.5481	14.366
4.54411	14.3968
4.54013	14.4511
4.53616	14.4104
4.5322	14.4333
4.52824	14.4337
4.52429	14.449
4.52034	14.451
4.51641	14.4394
4.51247	14.4255
4.50855	14.5109
4.50463	14.5488
4.50072	14.5453
4.49682	14.4343
4.49292	14.3316
4.48903	14.4079
4.48515	14.5457
4.48127	14.5432
4.4774	14.5329
4.47354	14.5884
4.46968	14.6062
4.46584	14.6107
4.46199	14.6487
4.45815	14.6495
4.45432	14.6561
4.4505	14.8114
4.44668	14.924
4.44287	14.9659
4.43907	15.0978
4.43527	15.1806
4.43148	15.2436
4.4277	15.3149
4.42392	15.3899
4.42015	15.5382
4.41638	15.6279
4.41262	15.6878
4.40887	15.8202
4.40513	15.9215
4.40139	16.0906
4.39765	16.2277
4.39393	16.3618
4.39021	16.5738
4.38649	16.7516
4.38278	16.9096
4.37908	17.0442
4.37539	17.1385
4.3717	17.3045
4.36801	17.4565
4.36434	17.5747
4.36067	17.7684
4.357	17.9633
4.35335	18.0921
4.34969	18.2136
4.34605	18.4608
4.34241	18.6307
4.33877	18.7727
4.33514	18.9858
4.33152	19.2069
4.32791	19.3557
4.3243	19.4489
4.32069	19.5863
4.3171	19.7394
4.31351	19.8698
4.30992	19.9686
4.30634	20.1499
4.30277	20.3609
4.2992	20.5868
4.29564	20.7401
4.29208	20.8688
4.28853	21.0767
4.28499	21.2281
4.28145	21.371
4.27792	21.5178
4.27439	21.6351
4.27087	21.7943
4.26735	21.9806
4.26384	22.1436
4.26034	22.3845
4.25684	22.6172
4.25335	22.8109
4.24986	22.9592
4.24638	23.0907
4.24291	23.2271
4.23944	23.3668
4.23598	23.5501
4.23252	23.7731
4.22906	23.9266
4.22562	24.057
4.22218	24.2421
4.21874	24.4272
4.21531	24.6075
4.21189	24.7786
4.20847	24.984
4.20506	25.1817
4.20165	25.3399
4.19825	25.506
4.19485	25.6056
4.19146	25.7285
4.18807	25.8982
4.18469	26.0738
4.18132	26.2608
4.17795	26.4502
4.17458	26.5513
4.17123	26.7087
4.16787	26.8928
4.16453	26.9857
4.16118	27.0607
4.15785	27.191
4.15451	27.376
4.15119	27.5011
4.14787	27.6003
4.14455	27.7165
4.14124	27.852
4.13794	28.0384
4.13464	28.1533
4.13134	28.1937
4.12805	28.2758
4.12477	28.4112
4.12149	28.5498
4.11822	28.6305
4.11495	28.6603
4.11168	28.7555
4.10843	28.9422
4.10517	29.0514
4.10192	29.0831
4.09868	29.1952
4.09545	29.2975
4.09221	29.4403
4.08899	29.594
4.08576	29.6956
4.08255	29.799
4.07933	29.9145
4.07613	30.0761
4.07292	30.1778
4.06973	30.3217
4.06654	30.5158
4.06335	30.6286
4.06017	30.736
4.05699	30.8818
4.05382	31.0387
4.05065	31.2382
4.04749	31.4133
4.04433	31.6614
4.04118	31.9045
4.03803	32.0369
4.03489	32.1765
4.03175	32.3489
4.02862	32.4597
4.02549	32.6265
4.02237	32.8283
4.01925	32.9644
4.01614	33.1427
4.01303	33.3269
4.00993	33.4684
4.00683	33.5623
4.00373	33.7019
4.00064	33.8337
3.99756	34.0234
3.99448	34.1816
3.9914	34.3279
3.98833	34.4453
3.98527	34.5368
3.98221	34.5899
3.97915	34.6404
3.9761	34.7307
3.97305	34.9263
3.97001	35.0157
3.96697	35.0722
3.96394	35.167
3.96091	35.3457
3.95789	35.5025
3.95487	35.4884
3.95186	35.4998
3.94885	35.6022
3.94584	35.6991
3.94284	35.7982
3.93984	35.8146
3.93685	35.8376
3.93386	35.9651
3.93088	36.0292
3.9279	36.0066
3.92493	36.0013
3.92196	36.0502
3.919	36.1633
3.91604	36.272
3.91308	36.303
3.91013	36.3003
3.90718	36.3516
3.90424	36.4576
3.9013	36.5196
3.89837	36.4871
3.89544	36.5213
3.89252	36.6535
3.8896	36.6595
3.88668	36.5731
3.88377	36.5443
3.88086	36.5717
3.87796	36.5967
3.87506	36.5803
3.87217	36.6147
3.86928	36.6589
3.86639	36.7
3.86351	36.6779
3.86064	36.6456
3.85776	36.6644
3.8549	36.6473
3.85203	36.5784
3.84917	36.5283
3.84631	36.5213
3.84346	36.5477
3.84062	36.53
3.83777	36.4586
3.83494	36.3256
3.8321	36.2555
3.82927	36.2723
3.82644	36.2264
3.82362	36.1598
3.82081	36.1152
3.81799	36.0495
3.81518	35.9278
3.81238	35.8177
3.80958	35.8241
3.80678	35.8382
3.80399	35.7949
3.8012	35.7564
3.79841	35.6873
3.79563	35.689
3.79286	35.6356
3.79008	35.5461
3.78731	35.5248
3.78455	35.5443
3.78179	35.437
3.77903	35.3258
3.77628	35.2455
3.77353	35.1621
3.77079	35.1023
3.76805	34.9441
3.76531	34.8167
3.76258	34.7343
3.75985	34.6487
3.75713	34.6239
3.7544	34.528
3.75169	34.3992
3.74898	34.2711
3.74627	34.2015
3.74356	34.1091
3.74086	34.0426
3.73816	33.9158
3.73547	33.7724
3.73278	33.6942
3.7301	33.5794
3.72741	33.4484
3.72474	33.324
3.72206	33.1979
3.71939	33.1165
3.71673	32.9299
3.71406	32.7679
3.71141	32.6954
3.70875	32.5524
3.7061	32.3969
3.70345	32.2456
3.70081	32.0395
3.69817	31.9206
3.69553	31.7904
3.6929	31.5896
3.69027	31.3876
3.68765	31.1583
3.68503	30.9972
3.68241	30.8974
3.6798	30.709
3.67719	30.5087
3.67458	30.4069
3.67198	30.2232
3.66938	30.0627
3.66678	29.9798
3.66419	29.7797
3.66161	29.5186
3.65902	29.3797
3.65644	29.2793
3.65387	29.1368
3.65129	28.979
3.64872	28.739
3.64616	28.4544
3.64359	28.2702
3.64103	28.0823
3.63848	27.897
3.63593	27.7839
3.63338	27.5886
3.63084	27.4083
3.6283	27.2413
3.62576	27.0368
3.62322	26.8754
3.62069	26.6933
3.61817	26.5178
3.61564	26.3164
3.61312	26.2029
3.61061	26.0109
3.6081	25.7917
3.60559	25.6384
3.60308	25.3726
3.60058	25.1544
3.59808	24.9874
3.59558	24.8306
3.59309	24.7029
3.59061	24.5641
3.58812	24.334
3.58564	24.1076
3.58316	24.0256
3.58069	23.9145
3.57822	23.7113
3.57575	23.3685
3.57328	23.0609
3.57082	22.9448
3.56836	22.7521
3.56591	22.5213
3.56346	22.2981
3.56101	22.0778
3.55857	21.969
3.55613	21.838
3.55369	21.5064
3.55126	21.2004
3.54883	20.9408
3.5464	20.7283
3.54397	20.5498
3.54155	20.3216
3.53914	20.1346
3.53672	20.0024
3.53431	19.7094
3.5319	19.4859
3.5295	19.3188
3.5271	19.0383
3.5247	18.7969
3.52231	18.5696
3.51991	18.2763
3.51753	17.998
3.51514	17.7631
3.51276	17.613
3.51038	17.4608
3.50801	17.2502
3.50563	16.9617
3.50327	16.6061
3.5009	16.3567
3.49854	16.1602
3.49618	15.9831
3.49382	15.8525
3.49147	15.6492
3.48912	15.4619
3.48677	15.3019
3.48443	15.1564
3.48209	14.927
3.47975	14.628
3.47742	14.4608
3.47509	14.3135
3.47276	14.1258
3.47044	13.9001
3.46812	13.659
3.4658	13.5808
3.46348	13.4565
3.46117	13.2699
3.45886	13.0362
3.45656	12.7851
3.45425	12.653
3.45195	12.551
3.44966	12.3792
3.44736	12.2745
3.44507	12.0388
3.44279	11.7582
3.4405	11.6126
3.43822	11.4334
3.43594	11.1842
3.43367	10.9612
3.43139	10.6824
3.42912	10.5785
3.42686	10.4644
3.42459	10.2329
3.42233	10.0691
3.42007	9.90381
3.41782	9.69332
3.41557	9.5385
3.41332	9.36447
3.41108	9.184
3.40883	9.06778
3.40659	8.9485
3.40435	8.84333
3.40212	8.68045
3.39989	8.48273
3.39766	8.30394
3.39544	8.26157
3.39322	8.18536
3.391	8.02093
3.38878	7.8323
3.38657	7.71502
3.38436	7.62566
3.38215	7.53096
3.37994	7.39677
3.37774	7.21902
3.37554	7.00668
3.37335	6.89223
3.37115	6.88221
3.36896	6.80742
3.36678	6.59282
3.36459	6.39799
3.36241	6.33401
3.36023	6.22533
3.35805	6.10224
3.35588	5.91903
3.35371	5.8466
3.35154	5.75413
3.34938	5.57966
3.34721	5.54092
3.34505	5.54351
3.3429	5.37862
3.34074	5.2002
3.33859	5.02861
3.33644	4.97014
3.3343	4.9975
3.33215	4.92802
3.33001	4.80571
3.32788	4.66946
3.32574	4.43106
3.32361	4.27295
3.32148	4.2867
3.31936	4.21997
3.31723	4.07534
3.31511	4.03763
3.31299	4.01245
3.31088	3.95038
3.30876	3.89552
3.30665	3.81278
3.30455	3.64476
3.30244	3.5029
3.30034	3.47852
3.29824	3.37721
3.29614	3.35201
3.29405	3.3461
3.29196	3.32345
3.28987	3.34993
3.28778	3.25713
3.2857	3.1074
3.28362	3.02683
3.28154	2.9329
3.27946	2.87757
3.27739	2.91214
3.27532	2.89941
3.27325	2.79201
3.27119	2.67771
3.26913	2.65984
3.26707	2.5198
3.26501	2.45093
3.26295	2.40278
3.2609	2.3743
3.25885	2.41854
3.2568	2.37739
3.25476	2.3166
3.25272	2.23783
3.25068	2.16318
3.24864	2.06472
3.24661	1.95198
3.24458	1.96897
3.24255	1.93935
3.24052	1.864
3.2385	1.91219
3.23648	1.97619
3.23446	1.92498
3.23244	1.79918
3.23043	1.5769
3.22841	1.47775
3.2264	1.54072
3.2244	1.74565
3.22239	1.69078
3.22039	1.48778
3.21839	1.45189
3.2164	1.48539
3.2144	1.50141
3.21241	1.41766
3.21042	1.3735
3.20844	1.45188
3.20645	1.46327
3.20447	1.27179
3.20249	1.21866
3.20051	1.35756
3.19854	1.40703
3.19657	1.20509
3.1946	1.09882
3.19263	1.22249
3.19067	1.40283
3.1887	1.28741
3.18674	1.13914
3.18479	1.0701
3.18283	1.05835
3.18088	1.05633
3.17893	1.1122
3.17698	1.13634
3.17504	1.07163
3.17309	1.04099
3.17115	1.04123
3.16921	1.04387
3.16728	1.06954
3.16534	1.0228
3.16341	0.85509
3.16148	0.797344
3.15956	0.810759
3.15763	0.816467
3.15571	0.869199
3.15379	0.919501
3.15187	0.928965
3.14996	0.838037
3.14805	0.8197
3.14614	0.856723
3.14423	0.88374
3.14232	0.825802
3.14042	0.658265
3.13852	0.709367
3.13662	0.813302
3.13472	0.784697
3.13283	0.733556
3.13094	0.723676
3.12905	0.726578
3.12716	0.713702
3.12528	0.775188
3.12339	0.783652
3.12151	0.632201
3.11964	0.568108
3.11776	0.745115
3.11589	0.890242
3.11401	0.889315
3.11214	0.780177
3.11028	0.624525
3.10841	0.641211
3.10655	0.714843
3.10469	0.705896
3.10283	0.679629
3.10098	0.661773
3.09912	0.542715
3.09727	0.612318
3.09542	0.782663
3.09358	0.760978
3.09173	0.719181
3.08989	0.68999
3.08805	0.638224
3.08621	0.647187
3.08437	0.726615
3.08254	0.61995
3.08071	0.520566
3.07888	0.486672
3.07705	0.553735
3.07523	0.681124
3.0734	0.674013
3.07158	0.64603
3.06977	0.629562
3.06795	0.603595
3.06613	0.555389
3.06432	0.576843
3.06251	0.661384
3.0607	0.666656
3.0589	0.656742
3.0571	0.707588
3.05529	0.696249
3.05349	0.599934
3.0517	0.684855
3.0499	0.773842
3.04811	0.63007
3.04632	0.557818
3.04453	0.548061
3.04274	0.539795
3.04096	0.563831
3.03918	0.632539
3.0374	0.74492
3.03562	0.771549
3.03384	0.737651
3.03207	0.605757
3.03029	0.53446
3.02852	0.684386
3.02676	0.682719
3.02499	0.674268
3.02323	0.696918
3.02146	0.647086
3.0197	0.539116
3.01795	0.561493
3.01619	0.616126
3.01444	0.573774
3.01269	0.628745
3.01094	0.623482
3.00919	0.540225
3.00744	0.415662
3.0057	0.419363
3.00396	0.525199
3.00222	0.576671
3.00048	0.539226
2.99875	0.474652
2.99701	0.480932
2.99528	0.493627
2.99355	0.613165
2.99183	0.653276
2.9901	0.697068
2.98838	0.605821
2.98666	0.433102
2.98494	0.364739
2.98322	0.361537
2.9815	0.514838
2.97979	0.528013
2.97808	0.568496
2.97637	0.552903
2.97466	0.459424
2.97295	0.443524
2.97125	0.441125
2.96955	0.46599
2.96785	0.572408
2.96615	0.61297
2.96446	0.664871
2.96276	0.631383
2.96107	0.459551
2.95938	0.445166
2.95769	0.388072
2.95601	0.41243
2.95432	0.527571
2.95264	0.521339
2.95096	0.581455
2.94928	0.512937
2.9476	0.568352
2.94593	0.652919
2.94425	0.668104
2.94258	0.498305
2.94092	0.49522
2.93925	0.610477
2.93758	0.627742
2.93592	0.629798
2.93426	0.604278
2.9326	0.545755
2.93094	0.438165
2.92928	0.387221
2.92763	0.51223
2.92598	0.576998
2.92433	0.54453
2.92268	0.517928
2.92103	0.498066
2.91939	0.412762
2.91775	0.347862
2.9161	0.553904
2.91447	0.72769
2.91283	0.630042
2.91119	0.49441
2.90956	0.522552
2.90793	0.547309
2.9063	0.449906
2.90467	0.499074
2.90304	0.562089
2.90142	0.541056
2.89979	0.607553
2.89817	0.581237
2.89656	0.464922
2.89494	0.434791
2.89332	0.488257
2.89171	0.605852
2.8901	0.617881
2.88849	0.524079
2.88688	0.516018
2.88527	0.543614
2.88367	0.481391
2.88206	0.449225
2.88046	0.533818
2.87886	0.601209
2.87727	0.64338
2.87567	0.764544
2.87408	0.663636
2.87248	0.574461
2.87089	0.52213
2.8693	0.637835
2.86772	0.866586
2.86613	0.787092
2.86455	0.724985
2.86297	0.752342
2.86139	0.665469
2.85981	0.468306
2.85823	0.440231
2.85666	0.519995
2.85508	0.57987
2.85351	0.784048
2.85194	0.882804
2.85038	0.718455
2.84881	0.6997
2.84724	0.812988
2.84568	0.805487
2.84412	0.85439
2.84256	0.670601
2.841	0.56596
2.83945	0.667095
2.83789	0.846614
2.83634	0.898192
2.83479	0.710406
2.83324	0.723532
2.83169	0.688769
2.83015	0.52366
2.82861	0.650888
2.82706	0.596453
2.82552	0.555976
2.82398	0.604071
2.82245	0.410859
2.82091	0.382867
2.81938	0.492728
2.81784	0.523623
2.81631	0.628443
2.81479	0.711094
2.81326	0.702008
2.81173	0.599489
2.81021	0.428524
2.80869	0.255224
2.80716	0.341919
2.80565	0.565426
2.80413	0.393218
2.80261	0.243341
2.8011	0.312494
2.79959	0.41646
2.79808	0.449694
2.79657	0.457907
2.79506	0.468368
2.79355	0.616962
2.79205	0.677798
2.79055	0.42946
2.78904	0.449104
2.78754	0.518866
2.78605	0.451497
2.78455	0.496067
2.78306	0.39836
2.78156	0.453172
2.78007	0.778643
2.77858	0.89117
2.77709	0.81531
2.77561	0.750869
2.77412	0.749359
2.77264	0.636697
2.77116	0.61191
2.76968	0.739192
2.7682	0.696782
2.76672	0.652128
2.76524	0.573938
2.76377	0.422679
2.7623	0.444982
2.76083	0.526494
2.75936	0.517217
2.75789	0.528142
2.75642	0.617621
2.75496	0.684179
2.7535	0.606352
2.75203	0.619276
2.75057	0.64774
2.74912	0.655128
2.74766	0.733182
2.7462	0.654293
2.74475	0.579986
2.7433	0.607642
2.74185	0.668147
2.7404	0.701169
2.73895	0.700215
2.7375	0.742072
2.73606	0.840996
2.73462	0.894241
2.73318	0.890215
2.73174	1.00996
2.7303	1.08496
2.72886	1.14408
2.72742	1.26994
2.72599	1.42241
2.72456	1.44271
2.72313	1.46301
2.7217	1.47153
2.72027	1.57482
2.71884	1.58035
2.71742	1.55811
2.71599	1.59672
2.71457	1.35069
2.71315	0.9715
2.71173	1.02893
2.71032	1.13328
2.7089	1.30013
2.70748	1.83252
2.70607	2.62878
2.70466	3.39123
2.70325	3.97614
2.70184	4.36029
2.70043	4.67559
2.69903	5.13268
2.69762	5.60783
2.69622	6.12951
2.69482	6.58023
2.69342	6.71434
2.69202	6.60152
2.69062	6.43929
2.68923	6.52425
2.68783	7.2371
2.68644	8.38918
2.68505	9.68515
2.68366	10.8269
2.68227	11.6076
2.68089	12.2722
2.6795	13.0079
2.67812	13.5815
2.67673	14.0343
2.67535	14.5801
2.67397	14.9703
2.6726	15.3661
2.67122	15.8937
2.66984	16.368
2.66847	16.6504
2.6671	16.9749
2.66572	17.3733
2.66435	17.8318
2.66299	18.0996
2.66162	18.3994
2.66025	18.843
2.65889	19.1573
2.65753	19.4555
2.65616	19.825
2.65481	20.0763
2.65345	20.247
2.65209	20.5541
2.65073	20.8255
2.64938	21.2002
2.64803	21.466
2.64667	21.7031
2.64532	21.9584
2.64397	22.1854
2.64263	22.4654
2.64128	22.5859
2.63994	22.7326
2.63859	23.0561
2.63725	23.4325
2.63591	23.7022
2.63457	23.8659
2.63323	23.9546
2.6319	24.0935
2.63056	24.2647
2.62923	24.5287
2.62789	24.8321
2.62656	25.0825
2.62523	25.1534
2.6239	25.2186
2.62258	25.3811
2.62125	25.7053
2.61993	25.9165
2.6186	25.9359
2.61728	25.9726
2.61596	26.2135
2.61464	26.5409
2.61332	26.6921
2.61201	26.5922
2.61069	26.6936
2.60938	26.8475
2.60807	26.9571
2.60675	27.1498
2.60544	27.1644
2.60414	27.2627
2.60283	27.5614
2.60152	27.5156
2.60022	27.7228
2.59891	27.9075
2.59761	27.8858
2.59631	27.9855
2.59501	28.232
2.59371	28.0956
2.59242	27.9086
2.59112	28.0559
2.58983	28.1873
2.58853	28.068
2.58724	28.0586
2.58595	28.0064
2.58466	28.1696
2.58338	28.2457
2.58209	28.1052
2.5808	28.2157
2.57952	28.2367
2.57824	28.0949
2.57695	28.1551
2.57567	28.1757
2.5744	28.1839
2.57312	28.0673
2.57184	27.9603
2.57057	28.1297
2.56929	28.149
2.56802	28.0899
2.56675	28.0768
2.56548	28.0895
2.56421	28.0156
2.56294	27.8971
2.56168	27.8778
2.56041	27.8731
2.55915	27.892
2.55789	27.8661
2.55662	27.8785
2.55536	27.806
2.5541	27.7848
2.55285	27.9359
2.55159	27.9739
2.55034	27.7655
2.54908	27.6398
2.54783	27.7601
2.54658	27.6688
2.54533	27.5582
2.54408	27.5606
2.54283	27.5461
2.54159	27.4936
2.54034	27.4469
2.5391	27.3982
2.53785	27.3069
2.53661	27.3778
2.53537	27.3713
2.53413	27.5218
2.53289	27.6096
2.53166	27.5711
2.53042	27.5398
2.52919	27.5461
2.52795	27.615
2.52672	27.5925
2.52549	27.6594
2.52426	27.7345
2.52303	27.781
2.52181	27.8378
2.52058	27.9909
2.51936	28.1586
2.51813	28.1661
2.51691	28.2341
2.51569	28.3662
2.51447	28.4367
2.51325	28.6202
2.51203	28.8162
2.51082	28.995
2.5096	29.1976
2.50839	29.3796
2.50717	29.4457
2.50596	29.529
2.50475	29.7776
2.50354	29.9482
2.50233	29.9896
2.50113	30.077
2.49992	30.2345
2.49872	30.3976
2.49751	30.6373
2.49631	30.8766
2.49511	31.0728
2.49391	31.2192
2.49271	31.3702
2.49151	31.6143
2.49031	31.8434
2.48912	31.9777
2.48792	32.103
2.48673	32.2543
2.48554	32.3792
2.48435	32.514
2.48316	32.6541
2.48197	32.8231
2.48078	33.0147
2.4796	33.2251
2.47841	33.5373
2.47723	33.6867
2.47604	33.7884
2.47486	34.0418
2.47368	34.1659
2.4725	34.2051
2.47132	34.3002
2.47014	34.4431
2.46897	34.4644
2.46779	34.5606
2.46662	34.7737
2.46545	34.8994
2.46427	34.9935
2.4631	35.0139
2.46193	35.0773
2.46077	35.1207
2.4596	35.1785
2.45843	35.2109
2.45727	35.3669
2.4561	35.6527
2.45494	35.7983
2.45378	35.7518
2.45262	35.8266
2.45146	35.9511
2.4503	36.1224
2.44914	36.2807
2.44799	36.3108
2.44683	36.2948
2.44568	36.241
2.44452	36.2982
2.44337	36.3684
2.44222	36.3873
2.44107	36.285
2.43992	36.1038
2.43877	36.0587
2.43763	36.2227
2.43648	36.3366
2.43534	36.4165
2.43419	36.5959
2.43305	36.6299
2.43191	36.6492
2.43077	36.7793
2.42963	36.7644
2.42849	36.7519
2.42736	36.9384
2.42622	37.0964
2.42509	37.318
2.42395	37.4066
2.42282	37.3119
2.42169	37.3198
2.42056	37.3654
2.41943	37.4801
2.4183	37.6485
2.41717	37.7081
2.41605	37.6944
2.41492	37.7968
2.4138	37.773
2.41267	37.7816
2.41155	38.0644
2.41043	38.2361
2.40931	38.248
2.40819	38.4582
2.40707	38.6484
2.40595	38.6855
2.40484	38.7362
2.40372	38.8539
2.40261	38.9059
2.4015	39.0585
2.40039	39.2107
2.39928	39.222
2.39817	39.3274
2.39706	39.3293
2.39595	39.099
2.39484	38.8352
2.39374	38.5572
2.39263	38.3035
2.39153	38.1318
2.39043	38.0848
2.38932	38.205
2.38822	38.3723
2.38712	38.6851
2.38603	39.0509
2.38493	39.3339
2.38383	39.7028
2.38274	39.9251
2.38164	40.179
2.38055	40.7685
2.37946	41.3253
2.37836	41.6977
2.37727	42.0705
2.37618	42.5551
2.3751	42.9286
2.37401	43.405
2.37292	43.9913
2.37184	44.4298
2.37075	44.7022
2.36967	45.0141
2.36859	45.2665
2.3675	45.4598
2.36642	45.4996
2.36534	45.7583
2.36427	46.0419
2.36319	46.3283
2.36211	46.6263
2.36104	46.6931
2.35996	46.8234
2.35889	47.1007
2.35781	47.4051
2.35674	47.6087
2.35567	47.7903
2.3546	48.0229
2.35353	48.2798
2.35247	48.7209
2.3514	49.0716
2.35033	49.1346
2.34927	49.3443
2.3482	49.6558
2.34714	49.9011
2.34608	50.1216
2.34502	50.4396
2.34396	50.6932
2.3429	50.7562
2.34184	50.892
2.34078	51.1224
2.33973	51.3682
2.33867	51.4592
2.33762	51.6145
2.33656	51.7228
2.33551	51.6509
2.33446	51.6963
2.33341	51.7218
2.33236	51.5468
2.33131	51.3257
2.33026	51.1946
2.32922	50.8728
2.32817	50.211
2.32712	49.6379
2.32608	49.0801
2.32504	48.4473
2.324	47.7253
2.32295	47.1953
2.32191	46.6755
2.32087	46.0021
2.31984	45.446
2.3188	44.9201
2.31776	44.508
2.31673	44.0352
2.31569	43.3162
2.31466	42.7521
2.31362	42.6909
2.31259	42.6359
2.31156	42.5422
2.31053	42.9465
2.3095	43.8027
2.30847	44.8744
2.30745	45.8021
2.30642	46.5224
2.3054	47.3321
2.30437	48.1075
2.30335	48.6728
2.30232	49.0516
2.3013	49.2707
2.30028	49.436
2.29926	49.5189
2.29824	49.7201
2.29722	49.9925
2.29621	50.1948
2.29519	50.355
2.29417	50.5029
2.29316	50.4648
2.29215	50.5774
2.29113	50.7774
2.29012	50.9651
2.28911	51.2353
2.2881	51.7693
2.28709	52.3252
2.28608	52.8046
2.28507	53.5078
2.28407	54.1292
2.28306	54.7831
2.28206	55.504
2.28105	56.0788
2.28005	56.6427
2.27905	57.2773
2.27805	57.75
2.27705	58.0617
2.27605	58.3842
2.27505	58.6959
2.27405	59.0607
2.27305	59.2914
2.27206	59.4842
2.27106	59.7117
2.27007	59.8907
2.26907	59.9476
2.26808	60.0346
2.26709	60.3326
2.2661	60.6742
2.26511	60.7944
2.26412	60.8595
2.26313	61.0056
2.26214	61.1341
2.26116	61.3749
2.26017	61.6527
2.25919	61.7303
2.2582	61.8341
2.25722	61.8823
2.25624	61.952
2.25526	61.9754
2.25428	61.99
2.2533	62.08
2.25232	62.1683
2.25134	62.4146
2.25036	62.6235
2.24939	62.7024
2.24841	62.8963
2.24744	62.9875
2.24646	62.9477
2.24549	63.0696
2.24452	63.109
2.24355	63.0263
2.24257	63.0326
2.24161	63.038
2.24064	63.0389
2.23967	63.1344
2.2387	63.1764
2.23774	63.2206
2.23677	63.2926
2.23581	63.3276
2.23484	63.3747
2.23388	63.4027
2.23292	63.3517
2.23196	63.2729
2.231	63.2565
2.23004	63.2867
2.22908	63.405
2.22812	63.426
2.22716	63.4974
2.22621	63.5458
2.22525	63.4547
2.2243	63.5073
2.22334	63.8237
2.22239	64.0685
2.22144	64.1273
2.22049	63.9481
2.21953	63.8728
2.21859	64.0525
2.21764	64.1438
2.21669	64.0951
2.21574	64.0149
2.21479	64.1196
2.21385	64.436
2.2129	64.5312
2.21196	64.5191
2.21102	64.6131
2.21007	64.6371
2.20913	64.763
2.20819	64.8444
2.20725	64.8473
2.20631	64.8198
2.20537	64.8364
2.20444	64.8699
2.2035	64.9029
2.20256	64.8642
2.20163	64.8188
2.20069	64.8593
2.19976	64.9437
2.19883	65.0321
2.19789	65.0582
2.19696	64.9602
2.19603	64.7926
2.1951	64.7227
2.19417	64.6
2.19325	64.5052
2.19232	64.4409
2.19139	64.3123
2.19047	64.1794
2.18954	64.0456
2.18862	63.9415
2.18769	63.6523
2.18677	63.5467
2.18585	63.6651
2.18493	63.7673
2.18401	63.7386
2.18309	63.9692
2.18217	64.3728
2.18125	64.4929
2.18033	64.6086
2.17942	64.8104
2.1785	65.0314
2.17759	65.0877
2.17667	65.0472
2.17576	64.9601
2.17485	64.9906
2.17393	65.3239
2.17302	65.4732
2.17211	65.3252
2.1712	65.5335
2.17029	65.8136
2.16939	65.7663
2.16848	65.7125
2.16757	65.7528
2.16667	65.7373
2.16576	65.7091
2.16486	65.7739
2.16395	65.8322
2.16305	65.9545
2.16215	66.0511
2.16125	65.9881
2.16035	65.9466
2.15945	65.9979
2.15855	65.9157
2.15765	65.7517
2.15675	65.9737
2.15586	66.2647
2.15496	66.2128
2.15406	66.0825
2.15317	65.9617
2.15228	65.9532
2.15138	65.989
2.15049	66.1084
2.1496	66.0719
2.14871	65.9397
2.14782	65.909
2.14693	66.0074
2.14604	66.1276
2.14515	66.0951
2.14427	66.0686
2.14338	66.1221
2.14249	66.271
2.14161	66.2012
2.14072	66.3808
2.13984	66.6244
2.13896	66.3953
2.13808	66.3413
2.13719	66.3836
2.13631	66.3712
2.13543	66.3921
2.13455	66.332
2.13368	66.2752
2.1328	66.2908
2.13192	66.3353
2.13105	66.3127
2.13017	66.3717
2.1293	66.4767
2.12842	66.4508
2.12755	66.3227
2.12668	66.2133
2.1258	66.1402
2.12493	66.1033
2.12406	66.2079
2.12319	66.0077
2.12232	65.6898
2.12145	65.6334
2.12059	65.8003
2.11972	65.6564
2.11885	65.3462
2.11799	65.3626
2.11712	65.5101
2.11626	65.49
2.1154	65.5321
2.11453	65.7122
2.11367	65.7803
2.11281	65.678
2.11195	65.6463
2.11109	65.815
2.11023	65.7213
2.10937	65.4204
2.10851	65.2645
2.10766	65.0849
2.1068	65.0722
2.10594	65.1906
2.10509	65.1402
2.10423	64.8381
2.10338	64.7308
2.10253	64.6052
2.10168	64.6118
2.10082	64.7147
2.09997	64.7016
2.09912	64.5844
2.09827	64.655
2.09742	64.6379
2.09658	64.2348
2.09573	64.1533
2.09488	64.1677
2.09404	64.1116
2.09319	64.252
2.09235	64.2539
2.0915	64.0462
2.09066	64.169
2.08982	64.3714
2.08897	63.9834
2.08813	63.7237
2.08729	63.7276
2.08645	63.602
2.08561	63.5572
2.08477	63.6087
2.08394	63.5596
2.0831	63.4289
2.08226	63.4039
2.08143	63.5779
2.08059	63.5983
2.07976	63.4433
2.07892	63.2138
2.07809	62.9579
2.07726	63.0573
2.07643	63.4399
2.07559	63.7501
2.07476	63.5594
2.07393	63.1573
2.0731	63.1506
2.07228	63.4366
2.07145	63.5001
2.07062	63.2752
2.06979	63.0824
2.06897	62.9154
2.06814	62.9077
2.06732	62.8717
2.06649	62.8182
2.06567	62.8087
2.06485	62.5648
2.06403	62.334
2.0632	62.4044
2.06238	62.2014
2.06156	62.3845
2.06074	62.8096
2.05993	62.6166
2.05911	62.4736
2.05829	62.6576
2.05747	62.7192
2.05666	62.6616
2.05584	62.4325
2.05503	62.1356
2.05421	62.2
2.0534	62.4547
2.05259	62.3872
2.05177	62.2953
2.05096	62.3253
2.05015	62.186
2.04934	62.001
2.04853	62.0592
2.04772	62.1879
2.04691	62.176
2.04611	62.0095
2.0453	61.7372
2.04449	61.6617
2.04369	61.6043
2.04288	61.5577
2.04208	61.4677
2.04127	61.4964
2.04047	61.4567
2.03967	61.2994
2.03886	61.2725
2.03806	61.2561
2.03726	61.0028
2.03646	60.8766
2.03566	60.7211
2.03486	60.7451
2.03407	60.9383
2.03327	60.8413
2.03247	60.4714
2.03167	60.2105
2.03088	60.1658
2.03008	59.9519
2.02929	59.8768
2.0285	59.8396
2.0277	59.7923
2.02691	59.8057
2.02612	59.616
2.02533	59.3089
2.02453	59.0887
2.02374	58.8671
2.02295	58.6905
2.02217	58.6868
2.02138	58.5582
2.02059	58.304
2.0198	58.127
2.01902	58.0391
2.01823	57.9596
2.01744	57.7007
2.01666	57.5327
2.01588	57.3929
2.01509	57.1128
2.01431	56.9768
2.01353	56.8395
2.01275	56.5347
2.01196	56.2192
2.01118	56.1183
2.0104	56.0439
2.00963	55.7708
2.00885	55.5452
2.00807	55.3454
2.00729	55.2671
2.00651	55.031
2.00574	54.7985
2.00496	54.9747
2.00419	54.8586
2.00341	54.4448
2.00264	54.1264
2.00187	53.9421
2.00109	53.893
2.00032	53.7721
