Name: Red-orange sandy loam/alluvium
Type:  Soils
Class: Entisol
Subclass: 
Particle Size:  see additional information
Sample No.: fgg007
Owner:  University of NSW
Wavelength range:  All
Origin: Fowlers Gap, western New South Wales, Australia
Hewson(1998) PhD thesis 
Description: Parent material consists of aeolian silts/clays and sandstone debris.

Physiography: Alluvium along creek on footslopes of sandstone (Nundooka Sandstone) outcropping hills



Measurement: Directional hemispherical reflectance 
First Column:  X
Second Column:  Y
X Units:  Wavelength (micrometers)
Y Units:  Reflectance (percent)
First X Value:  14.0131
Last X Value:  2.00032
Number of X Values:  2223
Additional information:  fgg007a.txt
	
14.0131	1.47706
13.9753	1.48216
13.9377	1.63085
13.9004	1.67758
13.8632	1.49913
13.8262	1.47598
13.7895	1.46014
13.7529	1.59156
13.7165	1.59305
13.6803	1.57036
13.6443	1.78873
13.6085	1.97848
13.5729	1.75829
13.5374	1.57211
13.5022	1.65386
13.4671	1.76890
13.4322	1.87617
13.3975	1.88540
13.3630	1.78773
13.3286	1.83847
13.2944	1.81180
13.2604	1.76559
13.2266	1.80295
13.1930	1.85410
13.1595	1.74971
13.1262	1.59885
13.0930	1.72510
13.0600	1.85785
13.0272	1.95240
12.9946	2.09473
12.9621	2.18944
12.9298	2.07312
12.8976	2.05502
12.8656	2.24521
12.8337	2.30388
12.8021	2.24314
12.7705	2.15095
12.7391	2.15754
12.7079	2.15621
12.6769	1.98460
12.6459	1.96400
12.6152	2.16506
12.5845	2.27484
12.5541	2.27931
12.5238	2.25480
12.4936	2.08849
12.4635	1.88832
12.4337	1.84229
12.4039	1.68714
12.3743	1.40700
12.3448	1.37258
12.3155	1.46583
12.2863	1.44477
12.2573	1.46750
12.2284	1.54742
12.1996	1.60158
12.1710	1.63749
12.1425	1.76249
12.1141	1.78746
12.0859	1.82404
12.0578	1.88499
12.0298	1.79122
12.0019	1.85306
11.9742	2.03530
11.9466	2.09807
11.9192	2.11115
11.8918	2.20902
11.8646	2.20179
11.8375	2.23418
11.8106	2.25800
11.7837	2.23859
11.7570	2.36805
11.7304	2.52667
11.7039	2.52507
11.6776	2.50585
11.6513	2.54573
11.6252	2.51240
11.5992	2.40749
11.5733	2.44877
11.5475	2.53646
11.5219	2.47942
11.4963	2.41710
11.4709	2.44782
11.4455	2.54534
11.4203	2.61253
11.3952	2.59425
11.3702	2.71595
11.3454	2.73340
11.3206	2.63388
11.2959	2.61824
11.2714	2.58627
11.2469	2.45765
11.2226	2.60214
11.1983	2.71025
11.1742	2.71620
11.1502	2.83016
11.1263	2.82557
11.1024	2.83542
11.0787	2.86268
11.0551	2.91529
11.0316	3.01230
11.0081	3.11556
10.9848	3.15950
10.9616	3.10496
10.9385	2.91247
10.9154	2.71081
10.8925	2.60153
10.8697	2.57211
10.8469	2.65528
10.8243	2.57555
10.8017	2.51737
10.7793	2.57466
10.7569	2.58699
10.7346	2.53892
10.7125	2.61726
10.6904	2.62475
10.6684	2.60726
10.6465	2.57685
10.6247	2.60807
10.6029	2.64968
10.5813	2.68089
10.5597	2.65429
10.5383	2.63100
10.5169	2.63688
10.4956	2.78258
10.4744	2.86363
10.4533	2.97533
10.4323	3.08263
10.4113	3.03915
10.3904	3.04925
10.3697	3.12981
10.3490	3.26534
10.3284	3.46675
10.3078	3.60389
10.2874	3.70416
10.2670	3.68693
10.2467	3.80919
10.2265	3.94169
10.2064	3.96797
10.1863	4.07347
10.1663	4.22579
10.1464	4.43100
10.1266	4.55747
10.1069	4.69990
10.0872	4.80941
10.0676	4.90483
10.0481	4.98768
10.0287	5.28169
10.0093	5.52900
9.9901	5.56352
9.9708	5.69018
9.9517	5.94358
9.9326	6.11101
9.9136	6.18615
9.8947	6.18322
9.8759	6.11311
9.8571	6.11334
9.8384	6.20811
9.8198	6.31015
9.8012	6.38377
9.7827	6.55250
9.7643	6.74561
9.7459	7.16173
9.7276	7.58331
9.7094	7.79361
9.6913	7.90609
9.6732	8.01519
9.6552	8.16526
9.6372	8.40047
9.6194	8.56263
9.6016	8.62759
9.5838	8.77931
9.5661	8.91526
9.5485	9.00605
9.5309	9.08038
9.5135	9.32711
9.4960	9.55873
9.4787	9.69720
9.4614	9.72668
9.4441	9.79671
9.4270	10.02220
9.4099	10.20560
9.3928	10.33810
9.3758	10.44920
9.3589	10.46840
9.3420	10.50970
9.3252	10.42030
9.3085	10.19320
9.2918	10.08500
9.2752	9.99319
9.2586	9.84552
9.2421	9.51588
9.2257	9.30204
9.2093	9.22019
9.1930	9.10963
9.1767	8.90796
9.1605	8.60913
9.1443	8.32504
9.1282	8.15338
9.1122	7.93117
9.0962	7.70833
9.0803	7.65846
9.0644	7.54069
9.0486	7.38397
9.0328	7.27887
9.0171	7.17536
9.0015	6.95989
8.9859	6.83014
8.9703	6.89862
8.9548	7.13121
8.9394	7.45204
8.9240	7.91426
8.9087	8.09018
8.8934	8.03502
8.8781	8.19546
8.8630	8.31307
8.8478	8.37241
8.8328	8.33340
8.8177	8.33920
8.8028	8.29758
8.7879	8.15318
8.7730	8.08105
8.7582	8.04357
8.7434	8.02045
8.7287	7.92824
8.7140	7.69790
8.6994	7.55351
8.6848	7.42368
8.6703	7.17332
8.6558	6.84436
8.6414	6.43751
8.6270	6.31553
8.6127	6.50290
8.5984	6.81436
8.5842	7.19713
8.5700	7.42350
8.5558	7.59056
8.5417	7.81613
8.5277	8.09087
8.5137	8.16990
8.4997	8.05055
8.4858	8.06761
8.4720	8.17636
8.4581	8.24132
8.4444	8.44609
8.4306	8.51092
8.4169	8.57711
8.4033	8.75169
8.3897	8.86171
8.3761	8.97833
8.3626	9.04786
8.3492	9.19516
8.3357	9.41361
8.3224	9.60646
8.3090	9.81282
8.2957	10.02850
8.2825	10.30080
8.2693	10.51250
8.2561	10.66900
8.2430	10.84500
8.2299	10.89990
8.2169	11.06250
8.2039	11.10970
8.1909	11.03360
8.1780	10.90600
8.1651	10.62990
8.1523	10.26810
8.1395	9.90539
8.1267	9.38634
8.1140	8.88588
8.1013	8.39036
8.0887	7.96029
8.0761	7.53434
8.0635	7.09700
8.0510	6.64507
8.0385	6.19195
8.0261	5.79355
8.0137	5.48025
8.0013	5.30666
7.9890	5.04596
7.9767	4.63982
7.9644	4.41804
7.9522	4.20257
7.9400	3.97753
7.9279	3.81527
7.9158	3.60769
7.9037	3.36421
7.8917	3.08898
7.8797	2.88704
7.8677	2.76947
7.8558	2.64755
7.8439	2.49306
7.8321	2.38796
7.8203	2.44071
7.8085	2.48571
7.7967	2.44695
7.7850	2.42935
7.7734	2.39889
7.7617	2.33167
7.7501	2.32236
7.7386	2.27872
7.7270	2.27265
7.7155	2.23220
7.7041	2.20271
7.6926	2.21528
7.6812	2.10940
7.6699	1.96036
7.6586	2.01140
7.6473	1.99656
7.6360	1.89191
7.6248	1.88120
7.6136	1.87357
7.6024	1.85726
7.5913	1.81221
7.5802	1.88446
7.5691	1.90084
7.5581	1.80862
7.5471	1.80524
7.5361	1.83588
7.5252	1.90790
7.5143	1.92194
7.5034	1.86251
7.4925	1.84531
7.4817	1.83682
7.4709	1.81000
7.4602	1.79914
7.4495	1.85762
7.4388	1.89379
7.4281	1.81633
7.4175	1.82294
7.4069	1.86414
7.3963	1.87360
7.3858	1.81854
7.3753	1.80860
7.3648	1.87818
7.3544	1.95915
7.3440	1.90812
7.3336	1.80504
7.3232	1.87467
7.3129	2.00364
7.3026	2.04110
7.2923	1.96015
7.2821	1.97910
7.2719	2.02716
7.2617	2.05170
7.2515	2.14650
7.2414	2.12522
7.2313	1.99941
7.2212	2.08078
7.2112	2.18589
7.2012	2.21430
7.1912	2.24321
7.1812	2.27565
7.1713	2.33354
7.1614	2.34007
7.1515	2.26086
7.1416	2.32142
7.1318	2.35196
7.1220	2.34850
7.1123	2.34535
7.1025	2.32612
7.0928	2.31408
7.0831	2.31486
7.0734	2.39509
7.0638	2.56956
7.0542	2.44756
7.0446	2.35728
7.0351	2.41025
7.0255	2.50136
7.0160	2.48907
7.0065	2.49362
6.9971	2.54444
6.9877	2.61474
6.9782	2.63725
6.9689	2.64054
6.9595	2.69523
6.9502	2.77651
6.9409	2.74810
6.9316	2.75064
6.9223	2.75060
6.9131	2.81437
6.9039	2.85132
6.8947	2.79624
6.8856	2.82253
6.8764	2.89703
6.8673	2.85834
6.8582	2.82706
6.8492	2.86429
6.8402	2.87106
6.8311	2.91057
6.8222	2.90162
6.8132	2.94109
6.8042	3.02461
6.7953	3.06705
6.7864	2.95808
6.7776	2.84152
6.7687	2.86904
6.7599	2.89877
6.7511	2.94607
6.7423	2.98741
6.7336	2.97166
6.7248	2.83195
6.7161	2.77055
6.7074	2.82320
6.6988	2.91371
6.6901	3.01406
6.6815	3.01588
6.6729	2.92378
6.6643	2.99788
6.6558	3.12850
6.6472	3.17628
6.6387	3.21435
6.6302	3.09904
6.6218	3.05966
6.6133	3.07781
6.6049	3.02033
6.5965	3.05485
6.5881	3.05337
6.5797	2.94891
6.5714	2.87717
6.5631	2.87814
6.5548	2.95491
6.5465	2.99055
6.5383	3.02914
6.5300	3.08681
6.5218	3.17740
6.5136	3.28436
6.5054	3.35162
6.4973	3.35053
6.4892	3.50899
6.4810	3.66459
6.4730	3.67710
6.4649	3.76827
6.4568	3.90682
6.4488	3.89889
6.4408	3.85062
6.4328	3.93296
6.4248	3.98694
6.4169	3.81633
6.4089	3.75894
6.4010	3.74823
6.3931	3.73062
6.3853	3.68603
6.3774	3.53576
6.3696	3.41382
6.3618	3.43477
6.3540	3.36754
6.3462	3.22867
6.3384	3.13653
6.3307	3.11499
6.3230	3.04055
6.3153	2.91415
6.3076	2.74176
6.2999	2.64040
6.2923	2.53614
6.2847	2.46759
6.2770	2.45956
6.2695	2.45856
6.2619	2.38162
6.2543	2.24041
6.2468	2.15324
6.2393	2.21171
6.2318	2.16830
6.2243	1.98430
6.2168	1.87577
6.2094	1.78166
6.2020	1.74409
6.1945	1.71229
6.1872	1.68901
6.1798	1.70201
6.1724	1.67010
6.1651	1.67461
6.1578	1.58251
6.1505	1.59241
6.1432	1.52975
6.1359	1.47184
6.1286	1.44390
6.1214	1.46013
6.1142	1.53502
6.1070	1.57802
6.0998	1.50465
6.0926	1.49812
6.0855	1.52120
6.0784	1.52813
6.0712	1.55954
6.0641	1.60264
6.0571	1.65056
6.0500	1.64882
6.0429	1.58923
6.0359	1.56832
6.0289	1.66327
6.0219	1.74194
6.0149	1.74651
6.0079	1.72598
6.0010	1.77572
5.9940	1.88660
5.9871	1.90086
5.9802	1.94223
5.9733	2.05812
5.9664	2.03194
5.9596	2.02893
5.9527	2.02583
5.9459	2.04866
5.9391	2.10667
5.9323	2.17817
5.9255	2.29294
5.9188	2.37336
5.9120	2.41658
5.9053	2.48644
5.8986	2.60891
5.8919	2.81118
5.8852	2.97088
5.8785	3.05701
5.8718	3.26283
5.8652	3.43278
5.8586	3.54566
5.8520	3.62470
5.8454	3.74933
5.8388	3.94743
5.8322	4.11380
5.8257	4.21612
5.8191	4.41331
5.8126	4.67310
5.8061	4.81799
5.7996	4.88029
5.7931	4.99552
5.7867	5.17149
5.7802	5.25305
5.7738	5.36116
5.7673	5.50533
5.7609	5.65436
5.7545	5.80967
5.7482	5.98164
5.7418	6.09318
5.7354	6.21331
5.7291	6.38733
5.7228	6.46604
5.7165	6.47581
5.7102	6.55295
5.7039	6.60983
5.6976	6.63356
5.6914	6.65184
5.6851	6.62253
5.6789	6.54114
5.6727	6.37455
5.6665	6.15484
5.6603	5.90802
5.6541	5.72916
5.6480	5.59048
5.6418	5.40583
5.6357	5.23556
5.6296	5.12786
5.6235	4.98939
5.6174	4.85161
5.6113	4.82980
5.6052	4.86348
5.5992	4.84423
5.5931	4.89290
5.5871	4.90720
5.5811	4.76048
5.5751	4.69333
5.5691	4.76998
5.5631	4.82919
5.5572	4.84238
5.5512	4.90789
5.5453	5.00102
5.5394	5.03210
5.5334	5.01955
5.5275	5.09104
5.5217	5.19334
5.5158	5.36120
5.5099	5.49909
5.5041	5.55968
5.4982	5.64826
5.4924	5.70384
5.4866	5.78963
5.4808	5.90229
5.4750	6.03648
5.4692	6.13103
5.4635	6.12079
5.4577	6.13033
5.4520	6.17166
5.4463	6.19264
5.4405	6.20854
5.4348	6.19870
5.4291	5.99009
5.4235	5.79733
5.4178	5.74094
5.4121	5.54574
5.4065	5.32758
5.4009	5.14286
5.3953	4.88951
5.3896	4.66582
5.3840	4.51214
5.3785	4.36185
5.3729	4.27006
5.3673	4.21788
5.3618	4.11136
5.3562	4.11706
5.3507	4.14618
5.3452	4.09654
5.3397	4.14017
5.3342	4.15446
5.3287	4.23266
5.3232	4.31906
5.3178	4.31487
5.3123	4.37118
5.3069	4.42346
5.3015	4.41969
5.2961	4.46965
5.2907	4.54079
5.2853	4.67925
5.2799	4.77358
5.2745	4.80927
5.2691	4.91988
5.2638	5.01496
5.2585	5.19582
5.2531	5.39179
5.2478	5.58933
5.2425	5.77242
5.2372	5.96557
5.2319	6.18179
5.2267	6.46890
5.2214	6.83185
5.2161	6.99736
5.2109	7.05145
5.2057	7.22253
5.2004	7.29053
5.1952	7.25440
5.1900	7.28550
5.1848	7.28152
5.1797	7.26417
5.1745	7.29326
5.1693	7.31666
5.1642	7.26820
5.1590	7.24094
5.1539	7.23701
5.1488	7.23908
5.1437	7.25570
5.1386	7.25150
5.1335	7.25636
5.1284	7.21161
5.1234	7.29288
5.1183	7.35059
5.1133	7.30661
5.1082	7.30755
5.1032	7.28529
5.0982	7.27324
5.0932	7.27609
5.0882	7.19126
5.0832	7.07312
5.0782	6.99615
5.0732	6.94727
5.0683	7.00320
5.0633	7.02320
5.0584	6.96423
5.0534	6.95665
5.0485	6.94686
5.0436	6.91682
5.0387	6.97217
5.0338	7.00301
5.0289	6.99270
5.0241	7.03024
5.0192	7.04414
5.0144	6.98259
5.0095	6.98273
5.0047	7.03404
4.9998	7.09483
4.9950	7.25945
4.9902	7.37312
4.9854	7.46195
4.9806	7.59208
4.9759	7.82794
4.9711	8.02283
4.9663	8.21433
4.9616	8.46363
4.9568	8.67860
4.9521	8.91712
4.9474	9.09119
4.9426	9.19077
4.9379	9.37350
4.9332	9.51367
4.9286	9.65890
4.9239	9.92930
4.9192	10.20450
4.9145	10.50570
4.9099	10.90190
4.9052	11.36710
4.9006	11.86600
4.8960	12.46860
4.8914	13.04960
4.8867	13.53290
4.8821	13.98930
4.8776	14.43190
4.8730	14.83610
4.8684	15.25120
4.8638	15.55370
4.8593	15.71320
4.8547	15.93510
4.8502	16.16380
4.8456	16.40790
4.8411	16.62730
4.8366	16.80690
4.8321	16.92370
4.8276	17.08990
4.8231	17.24620
4.8186	17.36900
4.8142	17.52300
4.8097	17.69170
4.8052	17.80530
4.8008	17.83200
4.7963	17.90890
4.7919	18.00130
4.7875	18.14420
4.7831	18.26430
4.7787	18.34820
4.7743	18.43960
4.7699	18.56330
4.7655	18.66230
4.7611	18.67290
4.7567	18.77330
4.7524	18.86570
4.7480	18.92720
4.7437	19.00640
4.7393	19.05930
4.7350	19.07230
4.7307	19.07840
4.7264	19.14720
4.7221	19.14590
4.7178	19.06090
4.7135	19.09370
4.7092	19.01840
4.7049	18.86430
4.7007	18.75260
4.6964	18.68670
4.6922	18.58350
4.6879	18.42800
4.6837	18.36520
4.6795	18.34080
4.6752	18.42870
4.6710	18.64470
4.6668	18.80040
4.6626	19.03830
4.6584	19.31110
4.6543	19.45230
4.6501	19.60010
4.6459	19.78600
4.6418	19.97820
4.6376	20.16450
4.6335	20.30110
4.6293	20.42350
4.6252	20.52940
4.6211	20.62180
4.6170	20.71830
4.6128	20.87420
4.6087	20.99250
4.6047	21.05990
4.6006	21.15630
4.5965	21.19400
4.5924	21.21420
4.5884	21.30620
4.5843	21.34950
4.5802	21.42330
4.5762	21.45980
4.5722	21.45670
4.5681	21.44460
4.5641	21.44920
4.5601	21.48390
4.5561	21.51900
4.5521	21.49460
4.5481	21.42310
4.5441	21.34160
4.5401	21.21920
4.5362	21.06760
4.5322	20.94880
4.5282	20.86340
4.5243	20.70350
4.5203	20.57570
4.5164	20.39150
4.5125	20.17090
4.5086	19.94150
4.5046	19.71080
4.5007	19.48730
4.4968	19.39170
4.4929	19.34060
4.4890	19.25160
4.4852	19.17220
4.4813	19.18010
4.4774	19.14930
4.4735	19.09780
4.4697	19.05350
4.4658	19.05980
4.4620	19.15110
4.4582	19.33600
4.4543	19.57070
4.4505	19.74570
4.4467	19.89140
4.4429	19.92020
4.4391	20.06090
4.4353	20.19640
4.4315	20.28050
4.4277	20.36280
4.4239	20.46080
4.4202	20.63600
4.4164	20.82850
4.4126	20.96950
4.4089	21.10510
4.4051	21.26510
4.4014	21.43340
4.3977	21.62490
4.3939	21.77720
4.3902	21.92980
4.3865	22.06900
4.3828	22.29510
4.3791	22.57170
4.3754	22.73480
4.3717	22.86430
4.3680	23.01920
4.3643	23.18610
4.3607	23.31480
4.3570	23.49120
4.3534	23.69350
4.3497	23.73270
4.3461	23.83360
4.3424	24.00400
4.3388	24.09090
4.3351	24.20720
4.3315	24.30950
4.3279	24.39500
4.3243	24.40910
4.3207	24.38000
4.3171	24.39340
4.3135	24.48800
4.3099	24.53700
4.3063	24.52610
4.3028	24.51990
4.2992	24.55240
4.2956	24.61220
4.2921	24.62760
4.2885	24.63360
4.2850	24.65220
4.2815	24.67620
4.2779	24.78240
4.2744	24.85430
4.2709	24.81300
4.2674	24.91280
4.2638	25.10010
4.2603	25.20630
4.2568	25.25980
4.2534	25.39270
4.2499	25.56870
4.2464	25.70000
4.2429	25.75800
4.2394	25.81430
4.2360	25.84880
4.2325	25.86190
4.2291	25.94860
4.2256	26.10260
4.2222	26.20620
4.2187	26.24000
4.2153	26.30830
4.2119	26.32730
4.2085	26.38420
4.2051	26.40840
4.2017	26.46870
4.1983	26.51650
4.1949	26.50260
4.1915	26.53990
4.1881	26.61610
4.1847	26.75830
4.1813	26.90430
4.1780	27.00760
4.1746	27.09750
4.1712	27.22020
4.1679	27.29650
4.1645	27.33030
4.1612	27.41360
4.1579	27.47920
4.1545	27.50630
4.1512	27.61690
4.1479	27.79520
4.1446	27.88550
4.1412	27.87410
4.1379	27.90330
4.1346	28.06160
4.1313	28.23890
4.1281	28.32190
4.1248	28.42970
4.1215	28.49050
4.1182	28.61380
4.1150	28.79100
4.1117	28.85840
4.1084	28.84950
4.1052	28.94120
4.1019	29.05380
4.0987	29.12810
4.0955	29.27120
4.0922	29.40660
4.0890	29.42110
4.0858	29.40450
4.0826	29.46100
4.0793	29.62090
4.0761	29.78720
4.0729	29.89150
4.0697	29.98660
4.0665	30.04040
4.0634	30.10840
4.0602	30.16640
4.0570	30.14140
4.0538	30.11810
4.0507	30.21770
4.0475	30.30050
4.0443	30.28330
4.0412	30.28360
4.0380	30.38700
4.0349	30.54820
4.0318	30.59210
4.0286	30.60090
4.0255	30.57640
4.0224	30.59640
4.0193	30.68090
4.0161	30.66770
4.0130	30.63100
4.0099	30.68390
4.0068	30.76640
4.0037	30.80310
4.0006	30.80760
3.9976	30.80320
3.9945	30.86930
3.9914	30.96760
3.9883	31.02960
3.9853	31.09870
3.9822	31.14550
3.9792	31.20660
3.9761	31.25380
3.9731	31.26800
3.9700	31.30560
3.9670	31.33530
3.9639	31.37000
3.9609	31.42430
3.9579	31.51250
3.9549	31.56610
3.9519	31.63630
3.9489	31.67590
3.9458	31.63560
3.9428	31.70460
3.9398	31.74450
3.9369	31.66300
3.9339	31.62680
3.9309	31.69900
3.9279	31.77430
3.9249	31.75760
3.9220	31.79890
3.9190	31.76930
3.9160	31.73870
3.9131	31.78900
3.9101	31.81420
3.9072	31.73440
3.9042	31.57700
3.9013	31.52190
3.8984	31.49370
3.8954	31.52630
3.8925	31.56510
3.8896	31.52480
3.8867	31.51940
3.8838	31.49240
3.8809	31.36410
3.8780	31.31520
3.8751	31.18620
3.8722	31.11190
3.8693	31.07410
3.8664	31.01030
3.8635	31.05620
3.8606	31.09110
3.8578	31.03380
3.8549	30.97520
3.8520	30.90330
3.8492	30.90240
3.8463	30.86630
3.8435	30.74230
3.8406	30.78070
3.8378	30.79570
3.8349	30.70790
3.8321	30.62230
3.8293	30.54440
3.8264	30.54090
3.8236	30.55950
3.8208	30.48770
3.8180	30.46430
3.8152	30.45350
3.8124	30.43970
3.8096	30.35340
3.8068	30.19870
3.8040	30.10770
3.8012	30.05520
3.7984	30.00740
3.7956	30.02020
3.7929	29.97400
3.7901	29.84820
3.7873	29.70990
3.7846	29.69960
3.7818	29.65580
3.7790	29.46250
3.7763	29.34710
3.7735	29.25480
3.7708	29.16750
3.7681	29.12700
3.7653	29.02970
3.7626	28.92590
3.7599	28.79250
3.7571	28.68810
3.7544	28.63170
3.7517	28.48410
3.7490	28.40760
3.7463	28.35910
3.7436	28.23180
3.7409	28.06080
3.7382	27.92350
3.7355	27.95030
3.7328	27.98270
3.7301	27.93560
3.7274	27.79620
3.7247	27.64840
3.7221	27.51460
3.7194	27.46450
3.7167	27.47550
3.7141	27.39120
3.7114	27.23990
3.7088	27.08730
3.7061	27.03760
3.7035	27.00120
3.7008	26.91890
3.6982	26.83070
3.6955	26.73220
3.6929	26.63410
3.6903	26.56210
3.6877	26.59070
3.6850	26.47590
3.6824	26.34490
3.6798	26.30310
3.6772	26.31170
3.6746	26.22550
3.6720	26.05330
3.6694	25.89060
3.6668	25.75440
3.6642	25.76110
3.6616	25.72570
3.6590	25.62490
3.6564	25.49360
3.6539	25.36840
3.6513	25.28170
3.6487	25.18250
3.6462	25.09370
3.6436	24.98660
3.6410	24.89820
3.6385	24.77930
3.6359	24.69840
3.6334	24.61250
3.6308	24.53560
3.6283	24.40740
3.6258	24.20830
3.6232	24.11290
3.6207	23.98600
3.6182	23.82380
3.6156	23.75520
3.6131	23.70990
3.6106	23.53660
3.6081	23.36730
3.6056	23.24550
3.6031	23.14700
3.6006	23.01060
3.5981	22.88780
3.5956	22.78890
3.5931	22.68570
3.5906	22.59060
3.5881	22.49860
3.5856	22.36100
3.5832	22.22720
3.5807	22.10390
3.5782	21.90410
3.5758	21.77120
3.5733	21.68590
3.5708	21.53690
3.5684	21.41690
3.5659	21.31210
3.5635	21.12960
3.5610	20.99800
3.5586	20.97620
3.5561	20.91000
3.5537	20.75170
3.5513	20.55230
3.5488	20.38320
3.5464	20.29610
3.5440	20.14920
3.5416	19.95800
3.5391	19.86980
3.5367	19.78740
3.5343	19.69040
3.5319	19.52860
3.5295	19.31210
3.5271	19.19030
3.5247	19.12500
3.5223	18.97890
3.5199	18.84500
3.5175	18.62530
3.5151	18.40780
3.5128	18.18750
3.5104	17.96470
3.5080	17.84460
3.5056	17.76230
3.5033	17.64600
3.5009	17.47280
3.4985	17.37660
3.4962	17.36980
3.4938	17.36410
3.4915	17.26600
3.4891	17.20350
3.4868	17.09830
3.4844	16.95950
3.4821	16.85120
3.4798	16.78510
3.4774	16.67240
3.4751	16.59020
3.4728	16.47210
3.4704	16.31070
3.4681	16.18520
3.4658	16.11560
3.4635	16.00030
3.4612	15.84330
3.4589	15.70670
3.4566	15.65850
3.4543	15.51640
3.4520	15.46000
3.4497	15.38950
3.4474	15.20720
3.4451	14.98930
3.4428	14.78980
3.4405	14.70940
3.4382	14.61220
3.4359	14.37610
3.4337	14.19700
3.4314	14.10880
3.4291	13.98040
3.4269	13.80050
3.4246	13.58650
3.4223	13.37470
3.4201	13.21630
3.4178	13.11470
3.4156	13.08680
3.4133	12.99250
3.4111	12.92390
3.4088	12.90120
3.4066	12.72140
3.4044	12.54050
3.4021	12.56580
3.3999	12.66340
3.3977	12.55860
3.3954	12.44630
3.3932	12.39970
3.3910	12.31840
3.3888	12.25030
3.3866	12.03240
3.3844	11.84400
3.3822	11.79450
3.3799	11.79490
3.3777	11.75360
3.3755	11.70000
3.3734	11.59310
3.3712	11.38610
3.3690	11.22270
3.3668	11.07380
3.3646	11.01780
3.3624	10.97510
3.3602	10.90030
3.3581	10.75450
3.3559	10.69190
3.3537	10.70170
3.3515	10.56730
3.3494	10.41040
3.3472	10.34710
3.3451	10.30550
3.3429	10.20400
3.3407	10.05330
3.3386	9.98207
3.3364	9.85438
3.3343	9.79006
3.3322	9.70679
3.3300	9.61024
3.3279	9.54026
3.3257	9.45651
3.3236	9.35615
3.3215	9.16448
3.3194	9.06469
3.3172	9.03028
3.3151	8.93462
3.3130	8.84979
3.3109	8.84711
3.3088	8.78954
3.3067	8.66439
3.3046	8.51460
3.3024	8.37723
3.3003	8.34174
3.2982	8.32855
3.2961	8.19806
3.2941	8.10571
3.2920	8.05678
3.2899	8.10594
3.2878	8.05463
3.2857	7.83756
3.2836	7.64435
3.2815	7.50074
3.2795	7.46509
3.2774	7.39699
3.2753	7.25167
3.2733	7.22868
3.2712	7.26270
3.2691	7.18358
3.2671	7.04236
3.2650	6.96720
3.2630	6.89843
3.2609	6.79189
3.2589	6.78542
3.2568	6.80916
3.2548	6.72380
3.2527	6.54986
3.2507	6.43028
3.2486	6.40124
3.2466	6.37584
3.2446	6.16971
3.2426	6.06660
3.2405	6.13754
3.2385	6.10232
3.2365	6.05903
3.2345	5.94456
3.2324	5.87917
3.2304	5.95054
3.2284	5.84015
3.2264	5.64255
3.2244	5.65546
3.2224	5.69618
3.2204	5.69060
3.2184	5.49744
3.2164	5.32882
3.2144	5.47657
3.2124	5.53869
3.2104	5.40702
3.2084	5.26446
3.2065	5.17838
3.2045	5.01236
3.2025	4.90567
3.2005	4.86540
3.1985	4.75006
3.1966	4.71129
3.1946	4.70235
3.1926	4.75664
3.1907	4.82401
3.1887	4.69855
3.1867	4.63333
3.1848	4.65665
3.1828	4.54347
3.1809	4.37347
3.1789	4.39124
3.1770	4.48189
3.1750	4.50074
3.1731	4.46657
3.1712	4.37366
3.1692	4.23907
3.1673	4.10931
3.1653	3.99257
3.1634	4.00743
3.1615	4.03074
3.1596	3.97082
3.1576	3.83007
3.1557	3.81038
3.1538	3.90492
3.1519	3.88431
3.1500	3.82042
3.1481	3.77962
3.1461	3.75102
3.1442	3.72392
3.1423	3.70355
3.1404	3.59865
3.1385	3.51711
3.1366	3.51666
3.1347	3.50730
3.1328	3.49687
3.1309	3.44501
3.1291	3.47944
3.1272	3.42520
3.1253	3.40551
3.1234	3.35247
3.1215	3.30986
3.1196	3.33112
3.1178	3.20507
3.1159	3.08677
3.1140	3.11973
3.1121	3.25993
3.1103	3.32510
3.1084	3.21356
3.1066	3.08359
3.1047	3.16903
3.1028	3.20350
3.1010	3.11348
3.0991	3.02794
3.0973	2.99813
3.0954	2.99016
3.0936	2.98861
3.0917	2.93873
3.0899	2.95984
3.0881	2.99881
3.0862	2.87834
3.0844	2.85073
3.0825	2.81373
3.0807	2.83484
3.0789	2.89397
3.0771	2.86871
3.0752	2.81673
3.0734	2.73791
3.0716	2.74468
3.0698	2.79090
3.0680	2.75412
3.0661	2.68984
3.0643	2.83938
3.0625	2.87580
3.0607	2.71471
3.0589	2.63792
3.0571	2.71056
3.0553	2.64815
3.0535	2.66589
3.0517	2.71613
3.0499	2.77376
3.0481	2.76828
3.0463	2.72447
3.0445	2.67956
3.0427	2.66128
3.0410	2.67210
3.0392	2.65447
3.0374	2.67270
3.0356	2.61255
3.0338	2.55601
3.0321	2.61644
3.0303	2.66033
3.0285	2.61738
3.0268	2.60920
3.0250	2.67659
3.0232	2.70208
3.0215	2.58647
3.0197	2.44710
3.0180	2.44131
3.0162	2.41838
3.0144	2.34500
3.0127	2.37417
3.0109	2.39219
3.0092	2.38423
3.0074	2.38487
3.0057	2.37173
3.0040	2.41930
3.0022	2.46726
3.0005	2.41886
2.9988	2.38200
2.9970	2.39861
2.9953	2.44864
2.9936	2.56483
2.9918	2.53871
2.9901	2.34820
2.9884	2.18387
2.9867	2.32424
2.9849	2.36314
2.9832	2.24341
2.9815	2.32746
2.9798	2.32342
2.9781	2.27590
2.9764	2.27209
2.9747	2.31183
2.9730	2.39784
2.9713	2.32637
2.9696	2.18600
2.9679	2.14410
2.9662	2.17285
2.9645	2.23498
2.9628	2.34200
2.9611	2.39802
2.9594	2.36256
2.9577	2.23878
2.9560	2.18105
2.9543	2.21460
2.9526	2.25486
2.9510	2.25046
2.9493	2.19006
2.9476	2.25133
2.9459	2.22057
2.9443	2.19000
2.9426	2.15283
2.9409	2.18458
2.9393	2.25550
2.9376	2.15631
2.9359	2.14158
2.9343	2.02427
2.9326	2.08771
2.9309	2.20195
2.9293	2.06572
2.9276	2.01249
2.9260	2.19897
2.9243	2.27488
2.9227	2.21783
2.9210	2.16431
2.9194	2.08384
2.9178	2.08592
2.9161	2.17388
2.9145	2.26775
2.9128	2.09035
2.9112	2.04854
2.9096	2.23077
2.9079	2.37275
2.9063	2.45611
2.9047	2.19014
2.9030	2.01128
2.9014	2.06345
2.8998	2.07893
2.8982	2.18895
2.8966	2.19377
2.8949	2.12234
2.8933	2.22023
2.8917	2.28052
2.8901	2.22560
2.8885	2.19290
2.8869	2.25482
2.8853	2.33114
2.8837	2.25189
2.8821	2.24814
2.8805	2.25535
2.8789	2.27628
2.8773	2.29220
2.8757	2.13561
2.8741	2.08257
2.8725	2.24160
2.8709	2.34432
2.8693	2.25859
2.8677	2.25468
2.8661	2.23963
2.8646	2.26609
2.8630	2.24891
2.8614	2.26975
2.8598	2.48959
2.8582	2.53227
2.8567	2.32176
2.8551	2.27295
2.8535	2.24002
2.8519	2.11276
2.8504	2.31706
2.8488	2.57976
2.8472	2.57683
2.8457	2.35399
2.8441	2.27883
2.8426	2.26064
2.8410	2.37853
2.8395	2.39115
2.8379	2.35105
2.8363	2.56051
2.8348	2.72791
2.8332	2.56121
2.8317	2.46740
2.8302	2.42617
2.8286	2.51344
2.8271	2.67671
2.8255	2.76918
2.8240	2.66252
2.8225	2.58909
2.8209	2.46413
2.8194	2.36574
2.8178	2.38610
2.8163	2.48322
2.8148	2.33732
2.8133	1.93981
2.8117	1.95005
2.8102	2.20944
2.8087	2.16331
2.8072	2.26932
2.8057	2.46766
2.8041	2.50738
2.8026	2.17799
2.8011	1.88137
2.7996	1.95416
2.7981	2.17326
2.7966	2.07738
2.7951	2.22294
2.7936	2.36545
2.7921	2.08293
2.7906	1.74456
2.7890	1.85058
2.7875	2.07686
2.7861	2.14975
2.7846	2.16595
2.7831	2.08584
2.7816	2.18544
2.7801	2.31748
2.7786	2.10659
2.7771	1.82145
2.7756	1.88486
2.7741	1.98491
2.7726	1.97903
2.7712	1.77840
2.7697	1.77303
2.7682	1.81928
2.7667	1.79124
2.7652	1.76768
2.7638	1.68159
2.7623	1.48165
2.7608	1.40840
2.7594	1.40565
2.7579	1.50184
2.7564	1.63648
2.7550	1.54554
2.7535	1.47052
2.7520	1.56335
2.7506	1.62126
2.7491	1.76379
2.7477	1.84712
2.7462	1.81061
2.7448	1.73876
2.7433	1.66582
2.7419	1.64760
2.7404	1.77260
2.7390	1.88902
2.7375	1.94676
2.7361	1.86052
2.7346	1.90467
2.7332	2.07516
2.7317	2.19952
2.7303	2.10292
2.7289	2.16267
2.7274	2.40072
2.7260	2.47371
2.7246	2.50129
2.7231	2.66403
2.7217	2.79185
2.7203	2.89576
2.7188	3.07010
2.7174	3.23254
2.7160	3.34718
2.7146	3.33206
2.7132	3.13745
2.7117	2.93440
2.7103	2.76625
2.7089	2.50640
2.7075	2.32008
2.7061	2.18417
2.7047	2.16263
2.7033	2.38918
2.7018	2.78023
2.7004	3.30839
2.6990	3.85412
2.6976	4.53558
2.6962	5.46746
2.6948	6.29550
2.6934	7.01966
2.6920	8.16034
2.6906	9.42245
2.6892	10.60810
2.6878	11.85200
2.6864	13.05770
2.6851	14.17630
2.6837	15.35900
2.6823	16.43280
2.6809	17.31790
2.6795	18.03150
2.6781	18.59730
2.6767	19.24980
2.6754	20.02870
2.6740	20.68800
2.6726	21.25110
2.6712	21.83880
2.6698	22.58600
2.6685	23.11690
2.6671	23.41770
2.6657	23.76330
2.6644	24.23680
2.6630	24.67290
2.6616	24.96340
2.6603	25.28210
2.6589	25.62600
2.6575	26.01990
2.6562	26.33170
2.6548	26.67940
2.6535	26.93090
2.6521	27.09510
2.6507	27.39720
2.6494	27.62750
2.6480	27.90170
2.6467	28.22620
2.6453	28.41850
2.6440	28.54730
2.6426	28.79180
2.6413	29.05010
2.6399	29.21880
2.6386	29.44090
2.6373	29.55660
2.6359	29.65610
2.6346	29.93860
2.6332	30.09860
2.6319	30.14510
2.6306	30.27760
2.6292	30.59850
2.6279	30.71410
2.6266	30.84070
2.6252	30.99090
2.6239	30.96560
2.6226	31.12630
2.6213	31.33410
2.6199	31.43620
2.6186	31.51690
2.6173	31.54110
2.6160	31.76470
2.6146	31.92770
2.6133	31.94330
2.6120	31.97980
2.6107	31.99080
2.6094	31.99250
2.6081	32.06950
2.6068	32.10110
2.6054	32.19970
2.6041	32.31850
2.6028	32.50720
2.6015	32.68560
2.6002	32.79090
2.5989	32.80200
2.5976	32.74890
2.5963	32.67110
2.5950	32.54140
2.5937	32.65200
2.5924	33.01320
2.5911	33.17000
2.5898	33.13640
2.5885	33.20510
2.5872	33.29950
2.5860	33.28130
2.5847	33.25360
2.5834	33.30570
2.5821	33.50260
2.5808	33.57930
2.5795	33.49180
2.5782	33.51400
2.5770	33.71870
2.5757	33.77340
2.5744	33.70730
2.5731	33.75720
2.5718	33.88060
2.5706	33.89100
2.5693	33.87260
2.5680	33.96440
2.5668	34.09480
2.5655	34.21400
2.5642	34.25370
2.5629	34.16870
2.5617	34.11520
2.5604	34.20470
2.5592	34.46510
2.5579	34.66850
2.5566	34.67250
2.5554	34.76360
2.5541	34.90300
2.5529	34.69070
2.5516	34.48570
2.5503	34.55150
2.5491	34.63280
2.5478	34.63410
2.5466	34.76750
2.5453	34.84100
2.5441	34.81020
2.5428	34.90480
2.5416	35.02850
2.5403	34.98260
2.5391	34.98130
2.5379	34.96420
2.5366	34.96910
2.5354	35.11960
2.5341	35.18360
2.5329	35.13720
2.5317	35.18500
2.5304	35.20410
2.5292	35.18170
2.5280	35.22260
2.5267	35.33920
2.5255	35.41140
2.5243	35.31020
2.5230	35.27240
2.5218	35.33660
2.5206	35.45960
2.5194	35.54410
2.5181	35.61580
2.5169	35.60590
2.5157	35.56600
2.5145	35.61980
2.5133	35.75710
2.5120	35.81630
2.5108	35.82060
2.5096	35.97680
2.5084	36.10220
2.5072	36.00660
2.5060	36.03480
2.5048	36.05950
2.5035	35.99510
2.5023	36.07580
2.5011	36.14100
2.4999	36.32090
2.4987	36.58350
2.4975	36.53700
2.4963	36.41720
2.4951	36.49190
2.4939	36.41810
2.4927	36.32450
2.4915	36.45850
2.4903	36.68980
2.4891	36.73340
2.4879	36.69810
2.4867	36.82970
2.4855	37.01460
2.4844	37.06550
2.4832	37.13720
2.4820	37.27050
2.4808	37.32880
2.4796	37.50300
2.4784	37.61410
2.4772	37.62160
2.4760	37.65350
2.4749	37.75070
2.4737	37.84540
2.4725	37.92230
2.4713	38.01570
2.4701	38.07690
2.4690	38.09020
2.4678	38.16060
2.4666	38.25890
2.4655	38.34690
2.4643	38.46630
2.4631	38.51000
2.4619	38.51270
2.4608	38.63320
2.4596	38.68730
2.4584	38.81110
2.4573	38.91180
2.4561	38.87100
2.4549	38.99820
2.4538	39.06300
2.4526	39.07370
2.4515	39.09090
2.4503	39.08410
2.4491	39.20730
2.4480	39.33290
2.4468	39.36730
2.4457	39.36590
2.4445	39.49030
2.4434	39.63520
2.4422	39.69510
2.4411	39.75530
2.4399	39.92270
2.4388	40.08490
2.4376	40.20690
2.4365	40.25960
2.4353	40.36290
2.4342	40.53710
2.4331	40.61160
2.4319	40.68530
2.4308	40.88810
2.4296	40.99060
2.4285	41.10240
2.4274	41.36790
2.4262	41.54510
2.4251	41.59500
2.4240	41.60590
2.4228	41.67100
2.4217	41.77960
2.4206	41.89990
2.4194	42.05680
2.4183	42.09210
2.4172	42.08730
2.4161	42.27600
2.4149	42.42390
2.4138	42.54680
2.4127	42.62760
2.4116	42.68120
2.4104	42.72250
2.4093	42.91700
2.4082	43.10830
2.4071	43.10040
2.4060	43.17100
2.4048	43.32080
2.4037	43.29970
2.4026	43.18780
2.4015	43.17090
2.4004	43.08080
2.3993	43.17630
2.3982	43.33020
2.3971	43.20810
2.3960	43.18990
2.3948	43.16170
2.3937	43.31580
2.3926	43.52670
2.3915	43.52130
2.3904	43.47420
2.3893	43.38470
2.3882	43.26690
2.3871	43.28210
2.3860	43.36130
2.3849	43.36100
2.3838	43.43460
2.3827	43.53760
2.3816	43.53090
2.3806	43.59000
2.3795	43.64710
2.3784	43.69800
2.3773	43.79280
2.3762	43.86610
2.3751	43.99730
2.3740	44.22790
2.3729	44.36710
2.3718	44.35500
2.3708	44.34690
2.3697	44.61240
2.3686	44.75290
2.3675	44.69110
2.3664	44.81780
2.3653	44.86700
2.3643	44.82550
2.3632	44.89220
2.3621	44.99240
2.3610	45.11230
2.3600	45.16640
2.3589	45.06190
2.3578	45.15010
2.3567	45.31350
2.3557	45.45620
2.3546	45.57290
2.3535	45.56460
2.3525	45.60180
2.3514	45.69480
2.3503	45.81260
2.3493	45.90030
2.3482	45.91920
2.3471	45.97220
2.3461	46.08140
2.3450	46.17200
2.3440	46.23110
2.3429	46.35000
2.3418	46.50240
2.3408	46.72220
2.3397	46.89220
2.3387	46.87720
2.3376	47.02790
2.3366	47.11160
2.3355	47.18470
2.3345	47.34070
2.3334	47.37790
2.3324	47.46930
2.3313	47.52390
2.3303	47.48400
2.3292	47.63680
2.3282	47.92480
2.3271	47.99070
2.3261	47.93600
2.3250	48.07470
2.3240	48.20150
2.3230	48.32980
2.3219	48.43500
2.3209	48.51230
2.3198	48.53330
2.3188	48.70730
2.3178	48.85710
2.3167	48.82110
2.3157	48.81840
2.3147	48.90520
2.3136	49.02830
2.3126	49.17680
2.3116	49.17880
2.3105	49.19090
2.3095	49.27340
2.3085	49.34670
2.3075	49.50130
2.3064	49.59850
2.3054	49.74440
2.3044	49.86710
2.3034	49.84880
2.3023	49.93360
2.3013	50.06450
2.3003	50.10490
2.2993	50.18660
2.2982	50.23400
2.2972	50.14230
2.2962	50.31210
2.2952	50.44070
2.2942	50.38990
2.2932	50.39640
2.2922	50.45030
2.2911	50.41780
2.2901	50.51280
2.2891	50.59720
2.2881	50.57560
2.2871	50.69870
2.2861	50.75580
2.2851	50.65570
2.2841	50.79230
2.2831	50.92810
2.2821	50.98910
2.2811	50.98790
2.2801	50.99150
2.2791	51.03400
2.2781	51.06140
2.2771	51.17360
2.2761	51.29570
2.2751	51.27380
2.2741	51.20770
2.2731	51.28580
2.2721	51.41460
2.2711	51.36280
2.2701	51.34550
2.2691	51.26440
2.2681	51.24520
2.2671	51.27230
2.2661	51.24490
2.2651	51.28240
2.2641	51.24080
2.2631	51.08140
2.2621	51.06690
2.2612	51.07250
2.2602	50.94630
2.2592	50.85470
2.2582	50.76930
2.2572	50.70400
2.2562	50.72490
2.2553	50.76190
2.2543	50.70040
2.2533	50.67380
2.2523	50.56070
2.2513	50.38700
2.2504	50.30940
2.2494	50.34940
2.2484	50.38430
2.2474	50.29010
2.2465	50.30680
2.2455	50.32610
2.2445	50.13300
2.2436	50.01950
2.2426	50.05540
2.2416	49.95530
2.2406	49.79390
2.2397	49.78920
2.2387	49.92430
2.2377	49.97280
2.2368	49.83050
2.2358	49.78270
2.2348	49.84000
2.2339	49.81720
2.2329	49.85420
2.2320	49.78660
2.2310	49.71820
2.2300	49.56880
2.2291	49.62000
2.2281	49.58920
2.2272	49.56140
2.2262	49.43360
2.2253	49.34510
2.2243	49.35500
2.2233	49.08720
2.2224	48.84620
2.2214	48.79860
2.2205	48.69990
2.2195	48.59970
2.2186	48.46580
2.2176	48.13330
2.2167	47.81870
2.2157	47.51220
2.2148	47.28230
2.2139	46.84880
2.2129	46.16740
2.2120	45.60960
2.2110	44.94780
2.2101	44.31780
2.2091	44.16060
2.2082	44.31270
2.2073	44.73580
2.2063	45.10630
2.2054	45.44530
2.2044	45.84730
2.2035	46.30250
2.2026	46.74650
2.2016	47.12750
2.2007	47.42290
2.1998	47.65920
2.1988	47.86290
2.1979	48.03210
2.1970	48.29530
2.1960	48.40820
2.1951	48.43410
2.1942	48.60290
2.1933	48.78090
2.1923	48.84950
2.1914	48.91720
2.1905	49.01610
2.1895	49.35970
2.1886	49.57180
2.1877	49.72540
2.1868	49.86710
2.1859	49.98620
2.1849	50.05530
2.1840	50.06590
2.1831	50.16330
2.1822	50.39680
2.1813	50.53080
2.1803	50.60630
2.1794	50.71990
2.1785	50.85490
2.1776	50.89190
2.1767	50.95640
2.1758	50.97300
2.1749	51.06530
2.1739	51.12020
2.1730	51.26830
2.1721	51.36820
2.1712	51.31290
2.1703	51.29730
2.1694	51.43890
2.1685	51.39700
2.1676	51.47730
2.1667	51.70540
2.1658	51.68510
2.1649	51.67940
2.1640	51.72850
2.1631	51.87570
2.1622	51.96300
2.1613	51.94100
2.1604	52.16430
2.1595	52.34870
2.1586	52.46700
2.1577	52.56400
2.1568	52.61870
2.1559	52.63330
2.1550	52.77870
2.1541	52.88840
2.1532	52.98440
2.1523	53.11230
2.1514	53.31650
2.1505	53.62320
2.1496	53.78470
2.1487	53.84250
2.1478	54.02810
2.1469	54.27510
2.1460	54.37910
2.1452	54.39850
2.1443	54.58350
2.1434	54.70450
2.1425	54.80050
2.1416	54.88190
2.1407	54.94460
2.1398	54.93650
2.1390	54.90540
2.1381	54.98000
2.1372	55.00350
2.1363	55.08360
2.1354	55.14470
2.1346	55.14460
2.1337	55.21890
2.1328	55.22720
2.1319	55.16720
2.1311	55.21600
2.1302	55.25310
2.1293	55.23710
2.1284	55.19720
2.1276	55.12240
2.1267	55.24540
2.1258	55.26980
2.1249	55.14390
2.1241	55.36740
2.1232	55.61680
2.1223	55.64860
2.1215	55.55340
2.1206	55.46950
2.1197	55.38850
2.1189	55.33470
2.1180	55.35030
2.1171	55.30900
2.1163	55.17140
2.1154	55.18880
2.1145	55.27490
2.1137	55.19630
2.1128	55.23710
2.1120	55.33990
2.1111	55.26760
2.1102	55.29060
2.1094	55.39410
2.1085	55.36900
2.1077	55.24660
2.1068	55.22440
2.1059	55.38070
2.1051	55.44320
2.1042	55.28890
2.1034	55.37160
2.1025	55.47060
2.1017	55.52090
2.1008	55.53510
2.1000	55.38240
2.0991	55.32530
2.0983	55.36200
2.0974	55.33790
2.0966	55.16650
2.0957	55.10280
2.0949	55.23450
2.0940	55.37370
2.0932	55.53950
2.0924	55.34280
2.0915	55.23180
2.0907	55.15430
2.0898	55.00940
2.0890	55.09390
2.0881	55.12120
2.0873	55.03440
2.0865	54.98500
2.0856	55.01500
2.0848	54.95600
2.0839	55.22350
2.0831	55.51720
2.0823	55.62670
2.0814	55.33190
2.0806	55.03850
2.0798	55.00760
2.0789	55.03950
2.0781	55.10220
2.0773	55.30850
2.0764	55.19820
2.0756	55.12540
2.0748	55.17440
2.0739	55.17370
2.0731	54.92290
2.0723	54.68780
2.0715	54.90790
2.0706	55.22330
2.0698	55.02820
2.0690	55.19780
2.0681	55.37420
2.0673	55.14080
2.0665	55.09270
2.0657	54.88760
2.0649	54.77650
2.0640	55.28710
2.0632	55.21800
2.0624	54.69350
2.0616	54.65500
2.0607	54.88820
2.0599	54.81070
2.0591	54.68390
2.0583	54.74360
2.0575	54.80160
2.0567	54.70880
2.0558	54.69490
2.0550	54.81180
2.0542	54.66610
2.0534	54.64020
2.0526	54.76580
2.0518	54.67780
2.0510	54.49580
2.0502	54.36100
2.0493	54.42400
2.0485	54.40860
2.0477	54.42360
2.0469	54.35230
2.0461	54.21530
2.0453	54.32240
2.0445	54.38880
2.0437	54.27450
2.0429	54.25660
2.0421	54.26710
2.0413	54.20450
2.0405	53.99590
2.0397	54.00460
2.0389	54.04130
2.0381	53.82200
2.0373	53.79140
2.0365	53.98900
2.0357	54.05220
2.0349	53.87320
2.0341	53.78990
2.0333	53.80240
2.0325	53.62870
2.0317	53.60310
2.0309	53.65990
2.0301	53.61470
2.0293	53.54400
2.0285	53.38080
2.0277	53.33160
2.0269	53.35750
2.0261	53.32660
2.0253	53.25510
2.0245	53.21960
2.0237	53.15180
2.0230	53.05050
2.0222	52.87420
2.0214	52.77540
2.0206	52.92120
2.0198	52.89270
2.0190	52.81430
2.0182	52.69890
2.0174	52.50070
2.0167	52.48020
2.0159	52.52520
2.0151	52.38140
2.0143	52.33720
2.0135	52.34330
2.0128	52.25830
2.0120	52.28530
2.0112	52.22310
2.0104	52.05080
2.0096	51.94470
2.0089	51.92640
2.0081	51.99420
2.0073	51.90000
2.0065	51.68030
2.0057	51.39230
2.0050	51.29550
2.0042	51.33390
2.0034	51.34120
2.0026	51.37900
2.0019	51.39010
2.0011	51.29750
2.0003	51.10220

