Name: Ferroaxinite Ca_2Fe^2+Al_2BSi_4O_15(OH)
Type: Mineral
Class: Silicates
Subclass: Cyclosilicates
Particle Size: 45-125um
Sample No.: CS-4A
Owner: JPL
Wavelength range: IR
Origin: Mexico, Baja California Norte, Los Gavelontos
Collected by Ward's
Description: 





Measurement: Hemispherical reflectance
First Column: X
Second Column: Y
X Units:  Wavelength (micrometers)
Y Units:  Reflectance (percent)
First X Value: 15.3853
Last X Value: 2.00032
Number of X Values: 2256
Additional information: cs04aa.txt
 
15.3853	1.6051
15.3397	1.75721
15.2945	1.79014
15.2495	1.75444
15.2048	1.82484
15.1603	2.28775
15.1161	2.67428
15.0722	3.02613
15.0285	3.47882
14.9851	3.43009
14.9419	2.96534
14.8989	2.76691
14.8563	2.25274
14.8138	1.7355
14.7716	1.58647
14.7296	1.57722
14.6879	1.55135
14.6464	1.66818
14.6052	1.81358
14.5641	1.86003
14.5233	1.73058
14.4828	1.68912
14.4424	1.83302
14.4023	2.09682
14.3624	2.29972
14.3227	2.39179
14.2833	2.56177
14.244	2.59402
14.205	2.52609
14.1662	2.69745
14.1276	2.98831
14.0892	3.06505
14.051	3.02706
14.0131	3.11564
13.9753	3.15524
13.9377	3.41771
13.9004	3.76611
13.8632	3.82374
13.8262	3.77448
13.7895	3.80156
13.7529	3.86083
13.7165	4.02336
13.6803	4.09344
13.6443	4.09332
13.6085	4.13165
13.5729	4.18665
13.5374	4.24015
13.5022	4.26047
13.4671	4.25644
13.4322	4.26222
13.3975	4.44495
13.363	4.66936
13.3286	4.75192
13.2944	4.87456
13.2604	5.08035
13.2266	5.12837
13.193	5.07686
13.1595	5.14027
13.1262	5.23988
13.093	5.20016
13.06	5.27609
13.0272	5.49951
12.9946	5.47898
12.9621	5.46022
12.9298	5.49898
12.8976	5.55449
12.8656	5.62586
12.8337	5.70824
12.8021	5.59098
12.7705	5.3859
12.7391	5.28251
12.7079	5.17162
12.6769	5.2469
12.6459	5.37469
12.6152	5.42104
12.5845	5.54362
12.5541	5.66855
12.5238	5.83677
12.4936	6.09013
12.4635	6.2473
12.4337	6.29872
12.4039	6.49043
12.3743	6.66024
12.3448	6.79211
12.3155	6.90072
12.2863	7.07381
12.2573	7.42203
12.2284	7.70525
12.1996	7.94863
12.171	8.12404
12.1425	8.08986
12.1141	8.01991
12.0859	8.10699
12.0578	8.0484
12.0298	7.96743
12.0019	7.99911
11.9742	8.10123
11.9466	8.34593
11.9192	8.77595
11.8918	9.15909
11.8646	9.48175
11.8375	10.0106
11.8106	10.5072
11.7837	10.9459
11.757	11.3995
11.7304	11.7123
11.7039	11.9476
11.6776	12.0818
11.6513	12.2768
11.6252	12.4743
11.5992	12.6798
11.5733	13.0786
11.5475	13.7249
11.5219	14.4386
11.4963	14.9723
11.4709	15.4825
11.4455	15.94
11.4203	16.3928
11.3952	16.8046
11.3702	17.2765
11.3454	17.6853
11.3206	17.7806
11.2959	17.7191
11.2714	17.7353
11.2469	18.0478
11.2226	18.3221
11.1983	18.2163
11.1742	17.7994
11.1502	17.1438
11.1263	16.0649
11.1024	14.5447
11.0787	13.0831
11.0551	12.1227
11.0316	11.6941
11.0081	11.5485
10.9848	12.0078
10.9616	12.9467
10.9385	13.9236
10.9154	14.8926
10.8925	15.7852
10.8697	16.3781
10.8469	16.8072
10.8243	17.19
10.8017	17.4798
10.7793	17.7929
10.7569	18.2876
10.7346	18.9539
10.7125	19.7664
10.6904	20.7222
10.6684	21.6321
10.6465	22.5684
10.6247	23.4157
10.6029	24.1817
10.5813	24.619
10.5597	24.7539
10.5383	24.5461
10.5169	23.8976
10.4956	22.7856
10.4744	21.3206
10.4533	19.7356
10.4323	17.9333
10.4113	16.1503
10.3904	14.5815
10.3697	13.3834
10.349	12.4517
10.3284	11.633
10.3078	10.734
10.2874	9.695
10.267	8.75677
10.2467	8.01193
10.2265	7.54015
10.2064	7.3604
10.1863	7.40239
10.1663	7.53246
10.1464	7.72157
10.1266	7.92732
10.1069	7.99007
10.0872	7.87007
10.0676	7.69044
10.0481	7.59535
10.0287	7.7358
10.0093	8.16268
9.99005	8.80092
9.97084	9.36313
9.95169	9.77955
9.93263	9.9532
9.91364	9.84892
9.89472	9.50129
9.87587	8.78802
9.8571	7.97191
9.83839	7.20191
9.81976	6.61767
9.80119	6.04695
9.78271	5.57315
9.76428	5.51166
9.74592	5.73486
9.72764	6.24298
9.70943	7.13326
9.69128	8.12862
9.6732	9.21942
9.65518	10.4188
9.63724	11.6988
9.61935	12.8796
9.60155	14.0979
9.5838	15.0932
9.56611	15.7142
9.5485	16.2411
9.53094	16.6242
9.51345	16.6235
9.49604	16.4318
9.47867	16.2407
9.46137	16.1298
9.44414	16.3648
9.42697	17.1631
9.40986	18.3353
9.39281	19.654
9.37583	20.9511
9.35891	22.0101
9.34204	22.6352
9.32524	22.6672
9.3085	22.3485
9.29182	21.7239
9.27519	20.9399
9.25863	20.2931
9.24213	19.8855
9.22568	19.9557
9.2093	20.5835
9.19297	21.3882
9.17669	22.1824
9.16048	22.8672
9.14433	23.3085
9.12823	23.4374
9.11218	23.1525
9.0962	22.4496
9.08027	21.2864
9.06439	19.8233
9.04858	18.2722
9.03281	16.8254
9.0171	15.5757
9.00145	14.5393
8.98585	13.4538
8.9703	12.436
8.9548	11.4708
8.93937	10.6926
8.92398	9.96794
8.90865	9.23053
8.89337	8.67672
8.87814	8.11725
8.86296	7.45874
8.84784	6.99341
8.83277	6.68239
8.81774	6.43563
8.80277	6.2007
8.78786	6.15686
8.77298	6.12229
8.75816	5.9495
8.7434	5.8516
8.72868	5.81647
8.714	5.83072
8.69938	5.57481
8.68481	4.87575
8.67029	4.21282
8.65581	3.68556
8.64139	3.19899
8.62701	2.65397
8.61268	2.2892
8.5984	2.00089
8.58416	1.67264
8.56997	1.37397
8.55583	1.18211
8.54174	0.963354
8.52769	0.768138
8.51368	0.722392
8.49973	0.726077
8.48582	0.61504
8.47195	0.413947
8.45813	0.305529
8.44436	0.28974
8.43062	0.241587
8.41693	0.246796
8.4033	0.235732
8.3897	0.0864473
8.37614	-0.0438199
8.36264	0.0831991
8.34917	0.211295
8.33574	0.188422
8.32236	0.209753
8.30903	0.223551
8.29573	0.276455
8.28248	0.327808
8.26927	0.310191
8.2561	0.211414
8.24298	0.109546
8.2299	0.0859877
8.21685	0.0926798
8.20385	0.156268
8.19089	0.206185
8.17797	0.272627
8.16509	0.363664
8.15225	0.271018
8.13946	0.215939
8.1267	0.345599
8.11398	0.347112
8.10131	0.419948
8.08867	0.472619
8.07606	0.489065
8.0635	0.561784
8.05099	0.606995
8.0385	0.590766
8.02606	0.663678
8.01366	0.611654
8.00129	0.502754
7.98896	0.618908
7.97667	0.724725
7.96442	0.803277
7.9522	0.791986
7.94002	0.792293
7.92788	0.801566
7.91578	0.833562
7.90371	0.887839
7.89168	0.926966
7.87969	0.959806
7.86773	0.967107
7.85581	1.07293
7.84392	1.18711
7.83207	1.18026
7.82026	1.24995
7.80849	1.33551
7.79674	1.37306
7.78503	1.45447
7.77337	1.45358
7.76173	1.45805
7.75012	1.53541
7.73856	1.68799
7.72703	1.79305
7.71553	1.76456
7.70406	1.77083
7.69263	1.8538
7.68123	1.94318
7.66987	1.95245
7.65855	1.97928
7.64725	2.09384
7.63598	2.11747
7.62475	2.14054
7.61356	2.21666
7.60239	2.32322
7.59126	2.46786
7.58017	2.58028
7.5691	2.60352
7.55806	2.63103
7.54707	2.7239
7.5361	2.8493
7.52516	2.87686
7.51425	2.89848
7.50338	2.98569
7.49253	3.08257
7.48172	3.15485
7.47094	3.2969
7.46019	3.36295
7.44947	3.36101
7.43879	3.44995
7.42813	3.56638
7.4175	3.63144
7.4069	3.63708
7.39634	3.69395
7.3858	3.75147
7.37529	3.76214
7.36482	3.8357
7.35437	3.95047
7.34396	4.07529
7.33357	4.19458
7.32321	4.24663
7.31288	4.25631
7.30258	4.303
7.29231	4.34348
7.28207	4.40342
7.27185	4.49967
7.26167	4.62185
7.25152	4.67313
7.24139	4.71144
7.23129	4.75315
7.22122	4.76777
7.21117	4.90116
7.20116	5.03592
7.19117	5.09714
7.18121	5.25755
7.17128	5.37809
7.16137	5.35761
7.1515	5.45928
7.14164	5.52313
7.13182	5.48552
7.12203	5.50482
7.11225	5.58207
7.10251	5.65394
7.0928	5.81898
7.08311	5.87327
7.07344	5.85522
7.06381	5.94085
7.0542	6.07985
7.04461	6.1474
7.03506	6.07211
7.02552	6.00087
7.01601	6.0442
7.00653	6.16352
6.99708	6.19033
6.98765	6.1496
6.97824	6.1296
6.96886	6.28899
6.95951	6.46669
6.95018	6.34661
6.94087	6.31968
6.9316	6.38127
6.92234	6.37095
6.91311	6.39184
6.90391	6.38067
6.89473	6.37157
6.88557	6.40709
6.87644	6.58293
6.86733	6.76904
6.85824	6.70144
6.84918	6.57182
6.84015	6.51115
6.83114	6.51916
6.82215	6.45537
6.81319	6.42883
6.80424	6.52594
6.79532	6.71128
6.78643	6.77276
6.77756	6.71571
6.76871	6.67251
6.75989	6.57826
6.75109	6.51724
6.74231	6.48916
6.73355	6.61783
6.72482	6.69363
6.71611	6.74709
6.70742	6.77818
6.69875	6.66719
6.69011	6.74926
6.68149	6.91704
6.67289	6.90092
6.66431	6.82795
6.65576	6.80286
6.64722	7.05972
6.63871	7.39681
6.63022	7.31066
6.62175	7.14193
6.61331	7.16073
6.60488	7.17053
6.59648	7.28054
6.5881	7.42274
6.57974	7.62423
6.5714	7.74283
6.56308	7.54441
6.55478	7.52794
6.54651	7.5128
6.53825	7.55282
6.53001	7.60327
6.5218	7.68448
6.51361	7.69621
6.50544	7.7233
6.49729	8.0777
6.48915	8.23084
6.48104	8.05819
6.47295	7.98568
6.46488	7.87712
6.45683	7.80543
6.4488	7.88684
6.44079	7.99717
6.4328	8.15477
6.42482	8.24274
6.41687	8.58834
6.40894	8.53341
6.40103	8.14402
6.39314	8.08408
6.38526	8.11603
6.37741	8.30428
6.36957	8.47857
6.36176	8.41744
6.35396	8.44598
6.34618	8.75666
6.33843	8.67791
6.33069	8.45529
6.32297	8.52124
6.31527	8.53682
6.30758	8.53903
6.29992	8.59894
6.29227	8.62979
6.28465	8.63984
6.27704	8.71494
6.26945	8.68772
6.26188	8.60167
6.25432	8.63688
6.24679	8.7256
6.23927	8.75684
6.23177	8.81137
6.22429	8.87026
6.21683	8.92868
6.20938	8.97271
6.20195	8.95694
6.19454	9.09973
6.18715	9.44188
6.17978	9.48574
6.17242	9.36844
6.16508	9.48118
6.15776	9.5151
6.15045	9.46376
6.14317	9.55036
6.1359	9.52952
6.12864	9.52818
6.12141	9.78424
6.11419	10.0731
6.10699	9.84906
6.0998	9.55924
6.09263	9.5023
6.08549	9.56269
6.07835	9.77425
6.07123	9.85785
6.06413	9.71053
6.05705	10.0076
6.04998	10.5753
6.04293	10.2086
6.0359	9.69444
6.02888	9.55541
6.02187	9.54603
6.01489	9.61391
6.00792	9.52929
6.00096	9.38111
5.99403	9.47201
5.98711	9.48675
5.9802	9.21989
5.97331	9.08301
5.96644	8.99117
5.95958	8.7657
5.95274	8.72697
5.94591	8.67785
5.9391	8.90546
5.9323	8.77818
5.92552	8.28107
5.91876	8.01083
5.91201	7.90166
5.90528	7.75726
5.89856	7.79695
5.89186	7.66096
5.88517	7.53214
5.8785	7.35692
5.87184	6.83229
5.8652	6.58027
5.85857	6.41645
5.85196	6.24377
5.84536	6.04227
5.83878	5.82986
5.83221	5.66616
5.82566	5.62275
5.81912	5.52919
5.81259	5.32753
5.80608	5.17432
5.79959	4.96871
5.79311	4.90925
5.78665	4.91799
5.78019	4.87642
5.77376	4.79787
5.76734	4.82489
5.76093	4.71303
5.75453	4.58382
5.74815	4.62427
5.74179	4.63542
5.73543	4.66315
5.7291	4.72086
5.72277	4.88094
5.71646	5.04836
5.71017	5.14149
5.70389	5.18906
5.69762	5.2874
5.69136	5.39256
5.68513	5.44634
5.6789	5.69807
5.67268	5.91719
5.66648	5.99108
5.6603	6.17538
5.65413	6.40263
5.64797	6.67506
5.64182	6.94456
5.63569	7.02562
5.62957	7.06821
5.62347	7.15576
5.61737	7.30637
5.61129	7.4424
5.60522	7.50608
5.59917	7.50711
5.59313	7.53054
5.5871	7.70877
5.58109	7.88168
5.57509	7.91554
5.5691	7.88633
5.56312	7.9968
5.55716	8.1919
5.55121	8.30043
5.54528	8.34046
5.53935	8.35729
5.53344	8.35866
5.52754	8.44442
5.52166	8.50687
5.51578	8.54828
5.50992	8.59242
5.50407	8.64458
5.49823	8.62012
5.49241	8.57004
5.4866	8.56635
5.4808	8.65992
5.47501	8.64641
5.46923	8.6693
5.46347	8.69749
5.45772	8.63864
5.45198	8.61146
5.44625	8.64047
5.44054	8.66839
5.43484	8.71638
5.42914	8.72791
5.42347	8.78406
5.4178	8.81348
5.41214	8.85008
5.4065	8.95017
5.40087	9.02243
5.39525	9.12677
5.38964	9.19017
5.38404	9.18727
5.37846	9.17824
5.37288	9.21337
5.36732	9.28653
5.36177	9.29609
5.35623	9.37191
5.35071	9.44346
5.34519	9.42712
5.33968	9.46793
5.33419	9.5199
5.32871	9.52172
5.32324	9.61368
5.31778	9.75474
5.31233	9.81553
5.30689	9.91165
5.30147	10.0513
5.29605	10.1616
5.29065	10.2924
5.28525	10.3503
5.27987	10.3485
5.2745	10.3524
5.26914	10.3841
5.26379	10.44
5.25845	10.4278
5.25312	10.3612
5.24781	10.3604
5.2425	10.4394
5.23721	10.5286
5.23192	10.5027
5.22665	10.4355
5.22138	10.407
5.21613	10.4782
5.21089	10.5079
5.20566	10.4735
5.20044	10.4554
5.19522	10.4261
5.19002	10.4162
5.18483	10.5117
5.17965	10.549
5.17448	10.496
5.16933	10.3869
5.16418	10.4356
5.15904	10.5244
5.15391	10.6257
5.14879	10.7634
5.14368	10.7978
5.13859	10.8423
5.1335	10.9578
5.12842	11.0487
5.12335	11.2309
5.1183	11.3559
5.11325	11.364
5.10821	11.4117
5.10318	11.5522
5.09817	11.6622
5.09316	11.7425
5.08816	11.8206
5.08317	11.8607
5.07819	11.9024
5.07322	12.0333
5.06826	12.1058
5.06331	12.1363
5.05837	12.1899
5.05344	12.3076
5.04852	12.399
5.04361	12.5226
5.03871	12.5718
5.03382	12.6689
5.02894	12.7979
5.02406	12.9272
5.0192	13.0492
5.01435	13.1203
5.0095	13.1849
5.00467	13.3182
4.99984	13.4207
4.99502	13.5119
4.99021	13.5905
4.98542	13.6774
4.98063	13.7843
4.97585	13.8447
4.97108	13.8996
4.96632	13.9714
4.96156	14.0954
4.95682	14.2282
4.95209	14.2751
4.94736	14.3559
4.94264	14.5047
4.93794	14.6834
4.93324	14.801
4.92855	14.8702
4.92387	14.9829
4.9192	15.1339
4.91453	15.2585
4.90988	15.403
4.90524	15.5411
4.9006	15.7276
4.89597	15.8921
4.89135	16.0346
4.88674	16.2205
4.88214	16.425
4.87755	16.5872
4.87296	16.782
4.86839	17.0088
4.86382	17.1255
4.85926	17.2534
4.85471	17.4273
4.85017	17.5961
4.84564	17.8014
4.84111	17.9931
4.8366	18.0838
4.83209	18.2015
4.82759	18.3449
4.8231	18.4696
4.81862	18.6183
4.81415	18.7373
4.80968	18.8436
4.80522	19.0102
4.80077	19.1951
4.79633	19.3181
4.7919	19.4972
4.78747	19.7566
4.78306	19.9748
4.77865	20.1319
4.77425	20.3834
4.76986	20.6614
4.76547	20.8605
4.7611	21.0113
4.75673	21.1673
4.75237	21.339
4.74802	21.5389
4.74367	21.7781
4.73934	22.0242
4.73501	22.1898
4.73069	22.2681
4.72638	22.3985
4.72207	22.5764
4.71777	22.8052
4.71348	22.998
4.7092	23.1274
4.70493	23.3135
4.70066	23.6017
4.69641	23.8058
4.69216	24.0216
4.68791	24.3072
4.68368	24.5362
4.67945	24.8403
4.67523	25.1628
4.67102	25.3594
4.66682	25.5723
4.66262	25.8962
4.65843	26.2176
4.65425	26.4883
4.65007	26.7532
4.64591	27.051
4.64175	27.3146
4.6376	27.556
4.63345	27.8364
4.62932	28.1765
4.62519	28.5351
4.62106	28.7907
4.61695	28.9976
4.61284	29.329
4.60874	29.5508
4.60465	29.6791
4.60056	29.8721
4.59648	30.104
4.59241	30.2075
4.58835	30.3403
4.58429	30.464
4.58024	30.478
4.5762	30.485
4.57216	30.4862
4.56814	30.4384
4.56411	30.5486
4.5601	30.6679
4.55609	30.6862
4.55209	30.6574
4.5481	30.6426
4.54411	30.6431
4.54013	30.6415
4.53616	30.6664
4.5322	30.7278
4.52824	30.7567
4.52429	30.7749
4.52034	30.7793
4.51641	30.7526
4.51247	30.7338
4.50855	30.7344
4.50463	30.8596
4.50072	30.9584
4.49682	31.0774
4.49292	31.3569
4.48903	31.6321
4.48515	31.836
4.48127	32.1012
4.4774	32.3776
4.47354	32.7107
4.46968	33.0086
4.46584	33.2676
4.46199	33.5338
4.45815	33.7698
4.45432	34.0051
4.4505	34.2946
4.44668	34.6359
4.44287	34.928
4.43907	35.2606
4.43527	35.5493
4.43148	35.8757
4.4277	36.2112
4.42392	36.488
4.42015	36.722
4.41638	36.954
4.41262	37.2681
4.40887	37.5845
4.40513	37.8571
4.40139	38.1491
4.39765	38.5167
4.39393	38.8811
4.39021	39.1822
4.38649	39.4634
4.38278	39.7113
4.37908	40.0302
4.37539	40.3581
4.3717	40.6295
4.36801	40.8583
4.36434	41.0643
4.36067	41.3094
4.357	41.5692
4.35335	41.7404
4.34969	41.9307
4.34605	42.1093
4.34241	42.2621
4.33877	42.4626
4.33514	42.6503
4.33152	42.8317
4.32791	43.0865
4.3243	43.1643
4.32069	43.1701
4.3171	43.2873
4.31351	43.5069
4.30992	43.7068
4.30634	43.8555
4.30277	43.9967
4.2992	44.1613
4.29564	44.2726
4.29208	44.3503
4.28853	44.4737
4.28499	44.6171
4.28145	44.7444
4.27792	44.8269
4.27439	44.8374
4.27087	44.8781
4.26735	44.8928
4.26384	44.8852
4.26034	44.8767
4.25684	44.9481
4.25335	45.0917
4.24986	45.2303
4.24638	45.3048
4.24291	45.4133
4.23944	45.5704
4.23598	45.7462
4.23252	45.8203
4.22906	45.8378
4.22562	45.8165
4.22218	45.8533
4.21874	45.7866
4.21531	45.7149
4.21189	45.7463
4.20847	45.7509
4.20506	45.7467
4.20165	45.732
4.19825	45.7516
4.19485	45.7672
4.19146	45.7749
4.18807	45.8141
4.18469	45.8642
4.18132	45.9531
4.17795	46.0174
4.17458	46.024
4.17123	46.0034
4.16787	46.0344
4.16453	46.0734
4.16118	46.0941
4.15785	46.125
4.15451	46.1008
4.15119	46.0981
4.14787	46.1138
4.14455	46.1104
4.14124	46.0991
4.13794	46.0826
4.13464	46.0911
4.13134	46.0505
4.12805	46.0469
4.12477	46.0021
4.12149	45.9325
4.11822	45.9127
4.11495	45.8802
4.11168	45.8198
4.10843	45.7945
4.10517	45.7681
4.10192	45.6876
4.09868	45.6075
4.09545	45.5743
4.09221	45.4797
4.08899	45.4076
4.08576	45.3104
4.08255	45.2324
4.07933	45.2679
4.07613	45.2385
4.07292	45.116
4.06973	45.0543
4.06654	45.0014
4.06335	45.0171
4.06017	45.0583
4.05699	44.9861
4.05382	44.9581
4.05065	44.9413
4.04749	44.8697
4.04433	44.7856
4.04118	44.6835
4.03803	44.6974
4.03489	44.8166
4.03175	44.8499
4.02862	44.8996
4.02549	44.982
4.02237	45.1082
4.01925	45.2949
4.01614	45.4668
4.01303	45.5627
4.00993	45.6515
4.00683	45.7824
4.00373	45.8465
4.00064	45.9691
3.99756	46.1044
3.99448	46.0199
3.9914	45.8323
3.98833	45.6344
3.98527	45.3236
3.98221	45.0383
3.97915	44.952
3.9761	45.0057
3.97305	45.2975
3.97001	45.7224
3.96697	46.1456
3.96394	46.4257
3.96091	46.5638
3.95789	46.6338
3.95487	46.6919
3.95186	46.7855
3.94885	46.808
3.94584	46.8062
3.94284	46.8157
3.93984	46.7841
3.93685	46.7806
3.93386	46.8124
3.93088	46.822
3.9279	46.8293
3.92493	46.8976
3.92196	47.0367
3.919	47.1199
3.91604	47.1779
3.91308	47.2524
3.91013	47.3421
3.90718	47.4879
3.90424	47.6058
3.9013	47.64
3.89837	47.6634
3.89544	47.6717
3.89252	47.6385
3.8896	47.6549
3.88668	47.6786
3.88377	47.6607
3.88086	47.632
3.87796	47.5921
3.87506	47.445
3.87217	47.375
3.86928	47.3209
3.86639	47.1579
3.86351	47.0646
3.86064	46.8681
3.85776	46.6298
3.8549	46.4765
3.85203	46.2439
3.84917	46.0325
3.84631	45.8715
3.84346	45.6771
3.84062	45.4811
3.83777	45.2641
3.83494	45.0854
3.8321	44.8752
3.82927	44.6966
3.82644	44.5671
3.82362	44.4258
3.82081	44.2179
3.81799	44.0578
3.81518	43.9228
3.81238	43.7275
3.80958	43.5379
3.80678	43.4612
3.80399	43.4377
3.8012	43.3535
3.79841	43.2151
3.79563	43.1401
3.79286	43.1462
3.79008	43.1239
3.78731	43.1554
3.78455	43.2277
3.78179	43.3164
3.77903	43.3035
3.77628	43.3413
3.77353	43.3613
3.77079	43.4187
3.76805	43.5517
3.76531	43.6192
3.76258	43.6379
3.75985	43.6418
3.75713	43.7375
3.7544	43.8773
3.75169	44.0225
3.74898	44.1106
3.74627	44.1557
3.74356	44.2039
3.74086	44.2297
3.73816	44.2606
3.73547	44.2923
3.73278	44.2788
3.7301	44.2393
3.72741	44.1449
3.72474	44.0378
3.72206	44.0407
3.71939	44.0544
3.71673	43.9393
3.71406	43.8385
3.71141	43.7463
3.70875	43.5854
3.7061	43.4759
3.70345	43.3534
3.70081	43.2338
3.69817	43.0585
3.69553	42.882
3.6929	42.7542
3.69027	42.5728
3.68765	42.3826
3.68503	42.1836
3.68241	41.9812
3.6798	41.8575
3.67719	41.7448
3.67458	41.5809
3.67198	41.3624
3.66938	41.2115
3.66678	41.0914
3.66419	40.9689
3.66161	40.9144
3.65902	40.8626
3.65644	40.8032
3.65387	40.7456
3.65129	40.7214
3.64872	40.7845
3.64616	40.9193
3.64359	40.9261
3.64103	40.8602
3.63848	40.907
3.63593	41.0998
3.63338	41.2503
3.63084	41.2413
3.6283	41.3185
3.62576	41.5235
3.62322	41.5828
3.62069	41.6259
3.61817	41.6981
3.61564	41.7413
3.61312	41.8014
3.61061	41.8611
3.6081	41.8635
3.60559	41.8518
3.60308	41.8523
3.60058	41.8999
3.59808	41.8894
3.59558	41.8251
3.59309	41.8123
3.59061	41.8712
3.58812	41.8006
3.58564	41.7011
3.58316	41.686
3.58069	41.6257
3.57822	41.5055
3.57575	41.4698
3.57328	41.4541
3.57082	41.4162
3.56836	41.3609
3.56591	41.1798
3.56346	41.0188
3.56101	40.9883
3.55857	40.907
3.55613	40.8569
3.55369	40.8403
3.55126	40.6547
3.54883	40.4906
3.5464	40.4287
3.54397	40.3422
3.54155	40.2444
3.53914	40.1576
3.53672	40.0942
3.53431	39.9587
3.5319	39.8689
3.5295	39.8531
3.5271	39.9011
3.5247	39.8814
3.52231	39.8016
3.51991	39.6687
3.51753	39.5662
3.51514	39.58
3.51276	39.6657
3.51038	39.6359
3.50801	39.5814
3.50563	39.5424
3.50327	39.4429
3.5009	39.3302
3.49854	39.3277
3.49618	39.3199
3.49382	39.2594
3.49147	39.1092
3.48912	38.9801
3.48677	38.9036
3.48443	38.7713
3.48209	38.6226
3.47975	38.4822
3.47742	38.3547
3.47509	38.2143
3.47276	38.1556
3.47044	38.0237
3.46812	37.8666
3.4658	37.7624
3.46348	37.7036
3.46117	37.4998
3.45886	37.3452
3.45656	37.2695
3.45425	37.1157
3.45195	36.966
3.44966	36.804
3.44736	36.6831
3.44507	36.6405
3.44279	36.6439
3.4405	36.5706
3.43822	36.4786
3.43594	36.4774
3.43367	36.4928
3.43139	36.4555
3.42912	36.5503
3.42686	36.6415
3.42459	36.6141
3.42233	36.5313
3.42007	36.5098
3.41782	36.4268
3.41557	36.3315
3.41332	36.2251
3.41108	36.1544
3.40883	36.0462
3.40659	35.8977
3.40435	35.7053
3.40212	35.4951
3.39989	35.3044
3.39766	35.0251
3.39544	34.688
3.39322	34.3555
3.391	34.0359
3.38878	33.6903
3.38657	33.2227
3.38436	32.7071
3.38215	32.2736
3.37994	31.7819
3.37774	31.297
3.37554	30.9146
3.37335	30.5824
3.37115	30.2518
3.36896	29.8718
3.36678	29.461
3.36459	29.1681
3.36241	28.9654
3.36023	28.7356
3.35805	28.5461
3.35588	28.4647
3.35371	28.4269
3.35154	28.4478
3.34938	28.4528
3.34721	28.4355
3.34505	28.4835
3.3429	28.633
3.34074	28.724
3.33859	28.7798
3.33644	28.9129
3.3343	29.0432
3.33215	29.0813
3.33001	29.0488
3.32788	29.0638
3.32574	29.1286
3.32361	29.2397
3.32148	29.3296
3.31936	29.3568
3.31723	29.4174
3.31511	29.5094
3.31299	29.5619
3.31088	29.578
3.30876	29.5869
3.30665	29.4651
3.30455	29.4048
3.30244	29.4464
3.30034	29.3182
3.29824	29.1305
3.29614	29.0626
3.29405	29.0288
3.29196	28.8649
3.28987	28.6449
3.28778	28.4559
3.2857	28.3932
3.28362	28.1935
3.28154	27.8949
3.27946	27.642
3.27739	27.3866
3.27532	27.0978
3.27325	26.8014
3.27119	26.5431
3.26913	26.2966
3.26707	25.9528
3.26501	25.6318
3.26295	25.3525
3.2609	25.0444
3.25885	24.8003
3.2568	24.6022
3.25476	24.2452
3.25272	23.9013
3.25068	23.7142
3.24864	23.6128
3.24661	23.4122
3.24458	23.1677
3.24255	23.0137
3.24052	22.849
3.2385	22.5888
3.23648	22.3517
3.23446	22.1796
3.23244	22.0365
3.23043	21.947
3.22841	21.9059
3.2264	21.7385
3.2244	21.506
3.22239	21.2996
3.22039	21.049
3.21839	20.8808
3.2164	20.9326
3.2144	21.0176
3.21241	20.9479
3.21042	20.876
3.20844	20.832
3.20645	20.8079
3.20447	20.7574
3.20249	20.6757
3.20051	20.6429
3.19854	20.7066
3.19657	20.698
3.1946	20.5717
3.19263	20.4306
3.19067	20.3174
3.1887	20.2264
3.18674	20.1384
3.18479	20.0052
3.18283	19.828
3.18088	19.6754
3.17893	19.6
3.17698	19.5239
3.17504	19.3513
3.17309	19.2606
3.17115	19.2369
3.16921	19.0509
3.16728	18.9541
3.16534	18.9987
3.16341	19.0386
3.16148	18.859
3.15956	18.7866
3.15763	18.9242
3.15571	19.1144
3.15379	19.044
3.15187	18.9794
3.14996	18.9941
3.14805	19.0253
3.14614	19.0642
3.14423	19.0433
3.14232	19.0648
3.14042	19.0081
3.13852	18.7718
3.13662	18.7602
3.13472	18.779
3.13283	18.6259
3.13094	18.4591
3.12905	18.3643
3.12716	18.1931
3.12528	18.0435
3.12339	18.0276
3.12151	18.0086
3.11964	17.8122
3.11776	17.5641
3.11589	17.4029
3.11401	17.2179
3.11214	16.9794
3.11028	16.7326
3.10841	16.5032
3.10655	16.1984
3.10469	15.9073
3.10283	15.582
3.10098	15.2086
3.09912	14.9138
3.09727	14.6522
3.09542	14.3513
3.09358	14.0417
3.09173	13.7239
3.08989	13.47
3.08805	13.3839
3.08621	13.1317
3.08437	12.9295
3.08254	12.7279
3.08071	12.5441
3.07888	12.4406
3.07705	12.3479
3.07523	12.1861
3.0734	12.0045
3.07158	11.8405
3.06977	11.6678
3.06795	11.633
3.06613	11.6033
3.06432	11.4747
3.06251	11.4865
3.0607	11.4536
3.0589	11.3376
3.0571	11.2148
3.05529	11.1038
3.05349	11.0411
3.0517	11.1482
3.0499	11.2482
3.04811	11.1996
3.04632	11.2457
3.04453	11.3448
3.04274	11.4117
3.04096	11.3947
3.03918	11.3882
3.0374	11.3559
3.03562	11.4368
3.03384	11.5503
3.03207	11.601
3.03029	11.5996
3.02852	11.4654
3.02676	11.402
3.02499	11.3779
3.02323	11.3538
3.02146	11.3342
3.0197	11.3698
3.01795	11.4425
3.01619	11.2984
3.01444	11.0665
3.01269	11.0186
3.01094	11.0938
3.00919	11.0085
3.00744	10.6621
3.0057	10.386
3.00396	10.1849
3.00222	9.93542
3.00048	9.78638
2.99875	9.60379
2.99701	9.42636
2.99528	9.27501
2.99355	9.06834
2.99183	8.77521
2.9901	8.46259
2.98838	8.38932
2.98666	8.28085
2.98494	8.08681
2.98322	7.83622
2.9815	7.74954
2.97979	7.80811
2.97808	7.80929
2.97637	7.63863
2.97466	7.42914
2.97295	7.28672
2.97125	7.1384
2.96955	7.12984
2.96785	7.03545
2.96615	6.88234
2.96446	6.91167
2.96276	6.96819
2.96107	6.83977
2.95938	6.69169
2.95769	6.60184
2.95601	6.62966
2.95432	6.71325
2.95264	6.67728
2.95096	6.40919
2.94928	6.10173
2.9476	5.9679
2.94593	5.99883
2.94425	5.88067
2.94258	5.79794
2.94092	5.81306
2.93925	5.89624
2.93758	6.08759
2.93592	6.12905
2.93426	6.22561
2.9326	6.4348
2.93094	6.576
2.92928	6.79241
2.92763	7.05522
2.92598	7.18173
2.92433	7.33603
2.92268	7.50269
2.92103	7.71086
2.91939	7.96892
2.91775	8.08756
2.9161	8.21817
2.91447	8.47018
2.91283	8.71046
2.91119	8.77579
2.90956	8.84921
2.90793	9.1163
2.9063	9.39193
2.90467	9.43379
2.90304	9.31816
2.90142	9.28976
2.89979	9.41431
2.89817	9.55726
2.89656	9.69795
2.89494	9.69244
2.89332	9.69635
2.89171	9.77175
2.8901	9.78161
2.88849	9.76107
2.88688	9.81213
2.88527	9.81649
2.88367	9.66108
2.88206	9.64989
2.88046	9.7725
2.87886	9.91006
2.87727	10.1111
2.87567	10.0988
2.87408	10.1229
2.87248	10.1668
2.87089	10.1202
2.8693	10.211
2.86772	10.459
2.86613	10.6691
2.86455	10.7322
2.86297	10.7779
2.86139	10.8968
2.85981	11.1199
2.85823	11.2096
2.85666	11.4025
2.85508	11.5872
2.85351	11.681
2.85194	11.7311
2.85038	11.8172
2.84881	12.0322
2.84724	12.2508
2.84568	12.5923
2.84412	12.9742
2.84256	13.2235
2.841	13.3592
2.83945	13.5067
2.83789	13.8435
2.83634	14.0652
2.83479	14.1242
2.83324	14.3813
2.83169	14.6675
2.83015	14.9567
2.82861	15.1742
2.82706	15.3774
2.82552	15.6187
2.82398	15.9352
2.82245	16.3347
2.82091	16.5465
2.81938	16.677
2.81784	16.8301
2.81631	17.0661
2.81479	17.1462
2.81326	17.2368
2.81173	17.3265
2.81021	17.5338
2.80869	17.7593
2.80716	17.8907
2.80565	17.9782
2.80413	18.1714
2.80261	18.1489
2.8011	18.0091
2.79959	17.9044
2.79808	17.9485
2.79657	17.9888
2.79506	17.9383
2.79355	17.7896
2.79205	17.6441
2.79055	17.6625
2.78904	17.9278
2.78754	18.1311
2.78605	18.124
2.78455	17.9133
2.78306	17.8327
2.78156	17.9367
2.78007	18.2218
2.77858	18.4285
2.77709	18.6552
2.77561	18.8851
2.77412	19.0591
2.77264	19.3841
2.77116	19.8203
2.76968	20.1621
2.7682	20.5821
2.76672	20.8299
2.76524	20.9218
2.76377	21.3025
2.7623	21.6016
2.76083	21.7192
2.75936	22.0206
2.75789	22.7418
2.75642	23.6305
2.75496	23.759
2.7535	23.3361
2.75203	23.4574
2.75057	23.5911
2.74912	23.6103
2.74766	23.8205
2.7462	24.0039
2.74475	23.9606
2.7433	24.2861
2.74185	25.0397
2.7404	25.7487
2.73895	25.8015
2.7375	25.4175
2.73606	25.6687
2.73462	25.8647
2.73318	25.6221
2.73174	25.7287
2.7303	26.1937
2.72886	26.7822
2.72742	27.4507
2.72599	28.2439
2.72456	29.0614
2.72313	29.1215
2.7217	29.7416
2.72027	30.8142
2.71884	30.7976
2.71742	31.1514
2.71599	31.5349
2.71457	32.0859
2.71315	32.8444
2.71173	34.1765
2.71032	34.909
2.7089	34.9854
2.70748	35.0688
2.70607	35.3485
2.70466	35.7927
2.70325	36.1677
2.70184	36.7453
2.70043	37.1293
2.69903	37.2626
2.69762	37.6793
2.69622	38.2899
2.69482	38.9048
2.69342	39.1537
2.69202	38.7636
2.69062	38.7601
2.68923	39.0177
2.68783	39.2193
2.68644	39.4341
2.68505	39.6354
2.68366	39.8591
2.68227	39.869
2.68089	40.0009
2.6795	40.4618
2.67812	40.5748
2.67673	40.7181
2.67535	40.1329
2.67397	39.4861
2.6726	39.6536
2.67122	40.8826
2.66984	40.8058
2.66847	39.7103
2.6671	40.2447
2.66572	40.4385
2.66435	39.8257
2.66299	38.8943
2.66162	38.868
2.66025	39.2639
2.65889	39.6497
2.65753	39.8195
2.65616	40.3859
2.65481	40.8691
2.65345	41.5053
2.65209	42.0068
2.65073	42.2311
2.64938	42.6536
2.64803	43.1329
2.64667	43.7088
2.64532	44.0749
2.64397	44.1167
2.64263	44.5634
2.64128	44.7858
2.63994	44.8473
2.63859	44.8733
2.63725	45.0356
2.63591	45.2195
2.63457	45.5931
2.63323	45.8154
2.6319	46.2084
2.63056	46.9278
2.62923	46.3443
2.62789	46.2651
2.62656	46.7578
2.62523	46.045
2.6239	45.7353
2.62258	46.014
2.62125	46.9517
2.61993	47.3013
2.6186	46.8373
2.61728	47.3822
2.61596	47.1516
2.61464	46.3791
2.61332	46.3215
2.61201	46.3582
2.61069	46.6279
2.60938	46.7125
2.60807	46.6978
2.60675	47.1381
2.60544	47.5876
2.60414	46.8864
2.60283	46.4932
2.60152	46.3336
2.60022	45.9576
2.59891	45.6852
2.59761	45.9622
2.59631	47.0987
2.59501	48.5417
2.59371	47.4477
2.59242	45.8724
2.59112	45.4743
2.58983	45.6175
2.58853	45.8561
2.58724	45.9893
2.58595	45.7109
2.58466	46.1547
2.58338	46.1843
2.58209	45.5378
2.5808	45.4883
2.57952	45.275
2.57824	45.4652
2.57695	45.7635
2.57567	45.4316
2.5744	45.5348
2.57312	45.7441
2.57184	45.1088
2.57057	45.1109
2.56929	45.034
2.56802	44.4595
2.56675	44.1599
2.56548	44.3633
2.56421	44.637
2.56294	44.4885
2.56168	44.2576
2.56041	43.6988
2.55915	42.9624
2.55789	42.6718
2.55662	42.6506
2.55536	42.5791
2.5541	42.5216
2.55285	42.3932
2.55159	42.2253
2.55034	42.14
2.54908	42.0462
2.54783	41.8297
2.54658	41.5676
2.54533	41.4258
2.54408	41.4261
2.54283	41.4407
2.54159	41.2186
2.54034	40.967
2.5391	40.7924
2.53785	40.6843
2.53661	40.6222
2.53537	40.4061
2.53413	40.2036
2.53289	40.3343
2.53166	40.3464
2.53042	40.1076
2.52919	40.0036
2.52795	40.0507
2.52672	39.9399
2.52549	39.7325
2.52426	39.6503
2.52303	39.6751
2.52181	39.7038
2.52058	39.6651
2.51936	39.6184
2.51813	39.6349
2.51691	39.5364
2.51569	39.4399
2.51447	39.4624
2.51325	39.5004
2.51203	39.3358
2.51082	39.2075
2.5096	39.2495
2.50839	39.1666
2.50717	39.0448
2.50596	39.0272
2.50475	38.915
2.50354	38.7457
2.50233	38.6539
2.50113	38.5737
2.49992	38.6457
2.49872	38.6567
2.49751	38.5056
2.49631	38.3801
2.49511	38.31
2.49391	38.213
2.49271	38.1494
2.49151	38.1592
2.49031	38.1528
2.48912	38.0983
2.48792	37.9931
2.48673	37.9138
2.48554	37.9028
2.48435	38.0342
2.48316	38.0136
2.48197	37.9266
2.48078	38.0223
2.4796	38.0993
2.47841	38.1141
2.47723	38.0399
2.47604	37.8547
2.47486	37.8197
2.47368	37.8616
2.4725	37.8637
2.47132	37.7604
2.47014	37.5459
2.46897	37.4127
2.46779	37.4094
2.46662	37.34
2.46545	37.2181
2.46427	37.0691
2.4631	36.9129
2.46193	36.7984
2.46077	36.6133
2.4596	36.4959
2.45843	36.4197
2.45727	36.3248
2.4561	36.2575
2.45494	36.1192
2.45378	35.902
2.45262	35.7794
2.45146	35.6651
2.4503	35.5898
2.44914	35.4742
2.44799	35.3424
2.44683	35.3469
2.44568	35.3143
2.44452	35.1077
2.44337	35.0016
2.44222	34.8248
2.44107	34.6365
2.43992	34.4678
2.43877	34.2395
2.43763	34.0363
2.43648	34.0211
2.43534	33.9861
2.43419	33.8535
2.43305	33.7634
2.43191	33.6546
2.43077	33.5361
2.42963	33.465
2.42849	33.2761
2.42736	33.1315
2.42622	32.9528
2.42509	32.765
2.42395	32.6338
2.42282	32.4854
2.42169	32.4357
2.42056	32.2741
2.41943	32.0531
2.4183	31.8849
2.41717	31.6646
2.41605	31.5741
2.41492	31.5161
2.4138	31.3523
2.41267	31.2496
2.41155	30.9508
2.41043	30.8246
2.40931	30.7403
2.40819	30.6702
2.40707	30.5795
2.40595	30.3534
2.40484	30.1226
2.40372	29.9168
2.40261	29.8006
2.4015	29.6449
2.40039	29.4446
2.39928	29.1596
2.39817	28.9617
2.39706	28.8995
2.39595	28.7885
2.39484	28.5472
2.39374	28.3705
2.39263	28.2154
2.39153	27.9158
2.39043	27.6657
2.38932	27.4226
2.38822	27.1462
2.38712	26.8552
2.38603	26.5562
2.38493	26.3093
2.38383	25.9321
2.38274	25.4677
2.38164	25.0777
2.38055	24.6958
2.37946	24.2294
2.37836	23.6459
2.37727	23.0676
2.37618	22.6568
2.3751	22.3996
2.37401	22.1592
2.37292	21.7958
2.37184	21.5778
2.37075	21.4932
2.36967	21.3282
2.36859	21.3678
2.3675	21.6323
2.36642	21.9367
2.36534	22.0246
2.36427	21.9961
2.36319	22.0678
2.36211	22.2684
2.36104	22.4398
2.35996	22.4692
2.35889	22.4723
2.35781	22.4071
2.35674	22.3015
2.35567	22.3435
2.3546	22.4895
2.35353	22.5112
2.35247	22.2299
2.3514	21.9822
2.35033	21.856
2.34927	21.7512
2.3482	21.6616
2.34714	21.5739
2.34608	21.3881
2.34502	21.2503
2.34396	21.2025
2.3429	20.9594
2.34184	20.7629
2.34078	20.49
2.33973	20.1072
2.33867	19.9482
2.33762	19.8115
2.33656	19.3583
2.33551	18.8027
2.33446	18.4441
2.33341	17.9943
2.33236	17.5906
2.33131	17.305
2.33026	16.8294
2.32922	16.4192
2.32817	16.2424
2.32712	15.912
2.32608	15.6647
2.32504	15.6199
2.324	15.5817
2.32295	15.6528
2.32191	15.8615
2.32087	15.9897
2.31984	15.9534
2.3188	16.0428
2.31776	16.0858
2.31673	16.1521
2.31569	16.3868
2.31466	16.6382
2.31362	16.7237
2.31259	16.6818
2.31156	16.6392
2.31053	16.6247
2.3095	16.5377
2.30847	16.5225
2.30745	16.586
2.30642	16.6929
2.3054	16.7046
2.30437	16.783
2.30335	16.793
2.30232	16.6762
2.3013	16.4676
2.30028	16.4606
2.29926	16.6999
2.29824	16.9821
2.29722	17.1123
2.29621	17.1621
2.29519	17.3325
2.29417	17.4732
2.29316	17.4997
2.29215	17.5434
2.29113	17.6773
2.29012	17.7466
2.28911	17.7249
2.2881	17.8245
2.28709	17.9296
2.28608	17.9637
2.28507	18.0486
2.28407	17.9814
2.28306	18.0608
2.28206	18.1375
2.28105	18.1858
2.28005	18.1602
2.27905	17.9905
2.27805	18.008
2.27705	18.0731
2.27605	18.095
2.27505	18.1078
2.27405	18.0701
2.27305	18.0744
2.27206	18.1416
2.27106	18.081
2.27007	18.0539
2.26907	18.1203
2.26808	18.1717
2.26709	18.159
2.2661	18.1866
2.26511	18.23
2.26412	18.1733
2.26313	18.158
2.26214	18.2068
2.26116	18.2284
2.26017	18.2444
2.25919	18.2455
2.2582	18.4117
2.25722	18.4457
2.25624	18.4188
2.25526	18.4939
2.25428	18.6857
2.2533	18.7439
2.25232	18.6857
2.25134	18.8345
2.25036	18.7742
2.24939	18.7177
2.24841	18.7226
2.24744	18.7327
2.24646	18.7445
2.24549	18.7564
2.24452	18.7903
2.24355	18.6704
2.24257	18.5421
2.24161	18.5808
2.24064	18.4711
2.23967	18.5088
2.2387	18.5371
2.23774	18.573
2.23677	18.494
2.23581	18.5757
2.23484	18.6894
2.23388	18.6856
2.23292	18.6154
2.23196	18.5877
2.231	18.541
2.23004	18.4665
2.22908	18.4318
2.22812	18.3692
2.22716	18.1548
2.22621	18.1967
2.22525	18.3923
2.2243	18.4622
2.22334	18.2799
2.22239	18.2805
2.22144	18.4403
2.22049	18.3166
2.21953	18.2102
2.21859	18.1793
2.21764	18.0701
2.21669	18.0194
2.21574	18.1421
2.21479	18.2127
2.21385	18.1615
2.2129	18.0946
2.21196	18.1833
2.21102	18.0679
2.21007	17.8674
2.20913	17.8886
2.20819	18.0799
2.20725	18.1234
2.20631	17.9454
2.20537	17.7901
2.20444	17.6918
2.2035	17.6596
2.20256	17.712
2.20163	17.7647
2.20069	17.7664
2.19976	17.6547
2.19883	17.754
2.19789	17.7522
2.19696	17.7803
2.19603	17.9076
2.1951	17.8654
2.19417	17.5263
2.19325	17.4054
2.19232	17.6854
2.19139	17.8058
2.19047	17.6446
2.18954	17.4986
2.18862	17.4721
2.18769	17.3829
2.18677	17.2737
2.18585	17.5902
2.18493	17.6748
2.18401	17.5658
2.18309	17.457
2.18217	17.43
2.18125	17.3664
2.18033	17.3352
2.17942	17.248
2.1785	17.3053
2.17759	17.4589
2.17667	17.5885
2.17576	17.3708
2.17485	17.1046
2.17393	17.1737
2.17302	17.4149
2.17211	17.3781
2.1712	17.1994
2.17029	17.2148
2.16939	17.1859
2.16848	17.0245
2.16757	16.9971
2.16667	17.0435
2.16576	17.1386
2.16486	17.315
2.16395	17.2415
2.16305	17.0609
2.16215	16.9172
2.16125	17.0741
2.16035	17.2002
2.15945	16.956
2.15855	16.7805
2.15765	16.8563
2.15675	16.8895
2.15586	16.9626
2.15496	17.0774
2.15406	17.1813
2.15317	17.1828
2.15228	17.0147
2.15138	16.7961
2.15049	16.5873
2.1496	16.6725
2.14871	17.046
2.14782	17.2167
2.14693	17.1218
2.14604	17.0028
2.14515	16.9063
2.14427	16.8576
2.14338	16.8512
2.14249	16.781
2.14161	16.7942
2.14072	16.7413
2.13984	16.6981
2.13896	16.6364
2.13808	16.6317
2.13719	16.6329
2.13631	16.7113
2.13543	16.9403
2.13455	16.9796
2.13368	16.644
2.1328	16.4321
2.13192	16.538
2.13105	16.7067
2.13017	16.6646
2.1293	16.4154
2.12842	16.2933
2.12755	16.3481
2.12668	16.32
2.1258	16.289
2.12493	16.6018
2.12406	16.7744
2.12319	16.6388
2.12232	16.6336
2.12145	16.5846
2.12059	16.4647
2.11972	16.29
2.11885	16.2875
2.11799	16.3584
2.11712	16.4534
2.11626	16.5504
2.1154	16.6485
2.11453	16.6566
2.11367	16.5647
2.11281	16.4409
2.11195	16.2989
2.11109	16.4025
2.11023	16.5914
2.10937	16.7966
2.10851	16.8148
2.10766	16.5546
2.1068	16.5571
2.10594	16.5951
2.10509	16.2675
2.10423	16.0175
2.10338	16.1976
2.10253	16.2603
2.10168	16.3679
2.10082	16.5487
2.09997	16.5394
2.09912	16.3491
2.09827	16.2655
2.09742	16.4938
2.09658	16.6235
2.09573	16.4876
2.09488	16.5153
2.09404	16.5914
2.09319	16.4247
2.09235	16.4829
2.0915	16.4934
2.09066	16.4585
2.08982	16.6141
2.08897	16.5874
2.08813	16.3755
2.08729	16.379
2.08645	16.4196
2.08561	16.174
2.08477	16.2328
2.08394	16.3489
2.0831	16.3434
2.08226	16.4269
2.08143	16.3728
2.08059	16.0474
2.07976	16.1594
2.07892	16.5663
2.07809	16.5743
2.07726	16.3599
2.07643	16.4559
2.07559	16.7175
2.07476	16.708
2.07393	16.5994
2.0731	16.518
2.07228	16.2458
2.07145	16.0891
2.07062	16.2118
2.06979	16.4909
2.06897	16.2482
2.06814	16.3618
2.06732	16.563
2.06649	16.4672
2.06567	16.4212
2.06485	16.4822
2.06403	16.5352
2.0632	16.5565
2.06238	16.5556
2.06156	16.7384
2.06074	16.5624
2.05993	16.0102
2.05911	16.0512
2.05829	16.6325
2.05747	16.74
2.05666	16.6294
2.05584	16.7941
2.05503	16.8101
2.05421	16.769
2.0534	16.4369
2.05259	16.2496
2.05177	16.3742
2.05096	16.6294
2.05015	16.8569
2.04934	16.7159
2.04853	16.4391
2.04772	16.3739
2.04691	16.5392
2.04611	16.7428
2.0453	16.6089
2.04449	16.8248
2.04369	16.6419
2.04288	16.5538
2.04208	16.5585
2.04127	16.638
2.04047	16.8044
2.03967	16.6906
2.03886	16.386
2.03806	16.3242
2.03726	16.633
2.03646	16.6606
2.03566	16.4947
2.03486	16.6282
2.03407	16.8616
2.03327	16.964
2.03247	16.8383
2.03167	16.6016
2.03088	16.5167
2.03008	16.5695
2.02929	16.5173
2.0285	16.4925
2.0277	16.3557
2.02691	16.5547
2.02612	16.7769
2.02533	16.8027
2.02453	16.9437
2.02374	16.8892
2.02295	16.619
2.02217	16.5571
2.02138	16.717
2.02059	17.0479
2.0198	17.1758
2.01902	16.9895
2.01823	16.8935
2.01744	16.8044
2.01666	16.7889
2.01588	16.6086
2.01509	16.6584
2.01431	16.9121
2.01353	16.9792
2.01275	16.9974
2.01196	17.0172
2.01118	17.0149
2.0104	16.8303
2.00963	16.7835
2.00885	16.9814
2.00807	17.0677
2.00729	17.0933
2.00651	17.1135
2.00574	17.1899
2.00496	17.0802
2.00419	17.1027
2.00341	17.184
2.00264	16.9901
2.00187	17.0027
2.00109	17.2286
2.00032	17.4267
