Name: Analcime NaAlSi_2O_6.H_2O
Type: Mineral
Class: Silicates
Subclass: Tectosilicates
Particle Size: 0-45um
Sample No.: TS-18A
Owner: JPL
Wavelength range: IR
Origin: 
Collected by JPL
Description: 





Measurement: Hemispherical reflectance
First Column: X
Second Column: Y
X Units:  Wavelength (micrometers)
Y Units:  Reflectance (percent)
First X Value: 15.3853
Last X Value: 2.00032
Number of X Values: 2256
Additional information: ts18aa.txt
 
15.3853	1.67108
15.3397	1.63896
15.2945	2.07866
15.2495	2.02382
15.2048	1.67548
15.1603	1.79962
15.1161	2.11062
15.0722	2.29026
15.0285	2.15633
14.9851	2.06972
14.9419	2.19437
14.8989	2.26714
14.8563	2.2146
14.8138	2.0966
14.7716	2.07059
14.7296	2.11184
14.6879	2.17935
14.6464	2.11253
14.6052	2.18321
14.5641	2.33866
14.5233	2.28853
14.4828	2.19728
14.4424	1.96188
14.4023	2.1111
14.3624	2.29968
14.3227	2.27146
14.2833	2.32552
14.244	2.1245
14.205	2.02297
14.1662	2.0757
14.1276	2.08539
14.0892	2.09806
14.051	2.2864
14.0131	2.23168
13.9753	2.10401
13.9377	2.20768
13.9004	2.19467
13.8632	2.08783
13.8262	2.0189
13.7895	2.07881
13.7529	2.13216
13.7165	2.24131
13.6803	2.29784
13.6443	2.2428
13.6085	2.00071
13.5729	1.78924
13.5374	1.74517
13.5022	1.76273
13.4671	1.83951
13.4322	1.83907
13.3975	1.83314
13.363	1.7062
13.3286	1.51925
13.2944	1.48291
13.2604	1.52798
13.2266	1.49956
13.193	1.53131
13.1595	1.55121
13.1262	1.56531
13.093	1.5492
13.06	1.43018
13.0272	1.39313
12.9946	1.24033
12.9621	0.974464
12.9298	0.868623
12.8976	0.964427
12.8656	1.04334
12.8337	0.982311
12.8021	1.04121
12.7705	1.02887
12.7391	1.00233
12.7079	1.13636
12.6769	1.34125
12.6459	1.44106
12.6152	1.67218
12.5845	1.87614
12.5541	1.89785
12.5238	1.9447
12.4936	2.13232
12.4635	2.43218
12.4337	2.83684
12.4039	3.16184
12.3743	3.51109
12.3448	3.74928
12.3155	3.96545
12.2863	4.0838
12.2573	4.21489
12.2284	4.46756
12.1996	4.72816
12.171	4.96305
12.1425	5.2262
12.1141	5.4926
12.0859	5.72699
12.0578	5.84875
12.0298	6.0503
12.0019	6.26808
11.9742	6.4778
11.9466	6.70442
11.9192	6.90948
11.8918	7.05075
11.8646	7.20987
11.8375	7.30203
11.8106	7.49076
11.7837	7.56191
11.757	7.61285
11.7304	7.66193
11.7039	7.65265
11.6776	7.81521
11.6513	8.03468
11.6252	8.06734
11.5992	8.08207
11.5733	8.20974
11.5475	8.26027
11.5219	8.25994
11.4963	8.33629
11.4709	8.44565
11.4455	8.55707
11.4203	8.49108
11.3952	8.49078
11.3702	8.55562
11.3454	8.58092
11.3206	8.61948
11.2959	8.63827
11.2714	8.59989
11.2469	8.53546
11.2226	8.51801
11.1983	8.51155
11.1742	8.53539
11.1502	8.55382
11.1263	8.37724
11.1024	8.26193
11.0787	8.18805
11.0551	8.12536
11.0316	8.19654
11.0081	8.0716
10.9848	7.95472
10.9616	7.86701
10.9385	7.89073
10.9154	7.87362
10.8925	7.7432
10.8697	7.65633
10.8469	7.45394
10.8243	7.30591
10.8017	7.32313
10.7793	7.30706
10.7569	7.16635
10.7346	6.99292
10.7125	6.8883
10.6904	6.79295
10.6684	6.78481
10.6465	6.69803
10.6247	6.60616
10.6029	6.52174
10.5813	6.30591
10.5597	6.15948
10.5383	6.04436
10.5169	6.0509
10.4956	6.07877
10.4744	6.01588
10.4533	5.83433
10.4323	5.76544
10.4113	5.80737
10.3904	5.82843
10.3697	5.82907
10.349	5.65598
10.3284	5.488
10.3078	5.49674
10.2874	5.49102
10.267	5.57708
10.2467	5.71644
10.2265	5.76841
10.2064	5.82129
10.1863	5.81623
10.1663	5.70865
10.1464	5.72832
10.1266	5.90491
10.1069	6.0301
10.0872	6.12905
10.0676	6.18333
10.0481	6.23981
10.0287	6.38881
10.0093	6.54706
9.99005	6.64614
9.97084	6.82939
9.95169	7.01337
9.93263	7.13766
9.91364	7.18201
9.89472	7.29771
9.87587	7.61647
9.8571	7.80941
9.83839	7.84492
9.81976	7.8992
9.80119	7.95017
9.78271	8.02034
9.76428	8.09244
9.74592	8.13812
9.72764	8.24109
9.70943	8.33474
9.69128	8.52524
9.6732	8.79131
9.65518	8.87361
9.63724	8.95088
9.61935	9.14178
9.60155	9.24723
9.5838	9.30276
9.56611	9.46994
9.5485	9.5247
9.53094	9.62138
9.51345	9.67003
9.49604	9.69765
9.47867	9.75831
9.46137	9.64745
9.44414	9.65494
9.42697	9.679
9.40986	9.552
9.39281	9.37121
9.37583	9.26324
9.35891	9.06135
9.34204	8.85032
9.32524	8.53366
9.3085	8.26647
9.29182	7.95683
9.27519	7.52628
9.25863	7.26729
9.24213	7.00915
9.22568	6.58424
9.2093	6.36219
9.19297	6.142
9.17669	5.79195
9.16048	5.62268
9.14433	5.5185
9.12823	5.48754
9.11218	5.36273
9.0962	5.21904
9.08027	5.08773
9.06439	5.04343
9.04858	5.10787
9.03281	5.16091
9.0171	5.10307
9.00145	4.98896
8.98585	4.98118
8.9703	5.05723
8.9548	5.06547
8.93937	5.03452
8.92398	5.02229
8.90865	5.03426
8.89337	5.01344
8.87814	5.02668
8.86296	4.9626
8.84784	4.71001
8.83277	4.62435
8.81774	4.76468
8.80277	4.75641
8.78786	4.5413
8.77298	4.50348
8.75816	4.53123
8.7434	4.39391
8.72868	4.23948
8.714	4.05568
8.69938	3.97072
8.68481	3.86319
8.67029	3.77583
8.65581	3.55023
8.64139	3.36566
8.62701	3.26475
8.61268	3.20024
8.5984	3.20394
8.58416	3.20101
8.56997	3.15399
8.55583	2.96623
8.54174	2.80375
8.52769	2.78932
8.51368	2.7246
8.49973	2.65102
8.48582	2.496
8.47195	2.15645
8.45813	2.00077
8.44436	2.02976
8.43062	1.93328
8.41693	1.73777
8.4033	1.55297
8.3897	1.47837
8.37614	1.43623
8.36264	1.32886
8.34917	1.05326
8.33574	0.842934
8.32236	0.906542
8.30903	0.923357
8.29573	0.762823
8.28248	0.631389
8.26927	0.653708
8.2561	0.599588
8.24298	0.452658
8.2299	0.323001
8.21685	0.295474
8.20385	0.370346
8.19089	0.428363
8.17797	0.407299
8.16509	0.387061
8.15225	0.247944
8.13946	0.0293385
8.1267	0.0127917
8.11398	0.135688
8.10131	0.185301
8.08867	0.109287
8.07606	0.0240078
8.0635	0.0808908
8.05099	0.209957
8.0385	0.0800271
8.02606	-0.0317299
8.01366	0.0394093
8.00129	0.0212963
7.98896	0.00875593
7.97667	0.02845
7.96442	0.0580281
7.9522	0.102006
7.94002	0.143817
7.92788	0.084503
7.91578	0.0637759
7.90371	0.146664
7.89168	0.108779
7.87969	0.121685
7.86773	0.221501
7.85581	0.22938
7.84392	0.270172
7.83207	0.24013
7.82026	0.192285
7.80849	0.241715
7.79674	0.212881
7.78503	0.204134
7.77337	0.287569
7.76173	0.390963
7.75012	0.451684
7.73856	0.440559
7.72703	0.431503
7.71553	0.401967
7.70406	0.535667
7.69263	0.59533
7.68123	0.569405
7.66987	0.651309
7.65855	0.730295
7.64725	0.694114
7.63598	0.730984
7.62475	0.888149
7.61356	0.848028
7.60239	0.859652
7.59126	0.929799
7.58017	0.982581
7.5691	1.12254
7.55806	1.1323
7.54707	1.15058
7.5361	1.19364
7.52516	1.15861
7.51425	1.17793
7.50338	1.31359
7.49253	1.48417
7.48172	1.55729
7.47094	1.57699
7.46019	1.67946
7.44947	1.75471
7.43879	1.71501
7.42813	1.78754
7.4175	1.81867
7.4069	1.8454
7.39634	1.98357
7.3858	2.08329
7.37529	2.1342
7.36482	2.24599
7.35437	2.25953
7.34396	2.27163
7.33357	2.40733
7.32321	2.55708
7.31288	2.65034
7.30258	2.73646
7.29231	2.75253
7.28207	2.74519
7.27185	2.79336
7.26167	2.88941
7.25152	2.93278
7.24139	2.94027
7.23129	2.97754
7.22122	3.07921
7.21117	3.16476
7.20116	3.2149
7.19117	3.23922
7.18121	3.34383
7.17128	3.47243
7.16137	3.53383
7.1515	3.50828
7.14164	3.50363
7.13182	3.61093
7.12203	3.70604
7.11225	3.69221
7.10251	3.69164
7.0928	3.72647
7.08311	3.75599
7.07344	3.85943
7.06381	3.95927
7.0542	3.91974
7.04461	3.984
7.03506	4.09241
7.02552	4.13822
7.01601	4.15557
7.00653	4.20261
6.99708	4.28341
6.98765	4.32265
6.97824	4.31465
6.96886	4.38001
6.95951	4.46953
6.95018	4.37702
6.94087	4.34515
6.9316	4.40729
6.92234	4.5136
6.91311	4.59815
6.90391	4.57378
6.89473	4.54778
6.88557	4.57999
6.87644	4.63496
6.86733	4.78015
6.85824	4.81609
6.84918	4.69819
6.84015	4.70909
6.83114	4.7177
6.82215	4.71579
6.81319	4.69454
6.80424	4.76884
6.79532	4.84518
6.78643	4.89771
6.77756	4.81961
6.76871	4.81275
6.75989	4.83095
6.75109	4.88359
6.74231	4.85819
6.73355	4.89208
6.72482	5.03814
6.71611	5.14967
6.70742	5.24442
6.69875	5.30827
6.69011	5.32789
6.68149	5.3833
6.67289	5.50833
6.66431	5.62216
6.65576	5.68744
6.64722	5.89193
6.63871	6.12564
6.63022	6.11189
6.62175	6.16459
6.61331	6.21469
6.60488	6.23942
6.59648	6.31833
6.5881	6.41199
6.57974	6.62001
6.5714	6.7298
6.56308	6.6557
6.55478	6.65059
6.54651	6.69347
6.53825	6.72651
6.53001	6.6948
6.5218	6.6792
6.51361	6.62603
6.50544	6.70803
6.49729	6.91469
6.48915	6.86439
6.48104	6.6886
6.47295	6.61009
6.46488	6.50997
6.45683	6.36086
6.4488	6.22814
6.44079	6.15974
6.4328	6.10143
6.42482	6.0319
6.41687	6.04133
6.40894	5.86127
6.40103	5.60521
6.39314	5.44048
6.38526	5.29749
6.37741	5.22313
6.36957	5.21141
6.36176	5.0603
6.35396	4.97379
6.34618	5.0993
6.33843	5.0029
6.33069	4.83981
6.32297	4.78685
6.31527	4.62379
6.30758	4.54932
6.29992	4.58826
6.29227	4.56576
6.28465	4.49542
6.27704	4.42476
6.26945	4.27827
6.26188	3.9819
6.25432	3.81776
6.24679	3.72539
6.23927	3.55458
6.23177	3.42678
6.22429	3.21901
6.21683	2.9647
6.20938	2.70591
6.20195	2.49053
6.19454	2.24131
6.18715	1.94795
6.17978	1.65951
6.17242	1.48877
6.16508	1.34992
6.15776	1.2177
6.15045	1.13644
6.14317	1.05397
6.1359	1.00519
6.12864	0.972321
6.12141	0.87604
6.11419	0.797578
6.10699	0.806561
6.0998	0.789873
6.09263	0.725518
6.08549	0.757542
6.07835	0.881043
6.07123	1.04582
6.06413	1.13003
6.05705	1.28758
6.04998	1.56305
6.04293	1.65826
6.0359	1.70883
6.02888	1.83567
6.02187	1.96685
6.01489	2.13834
6.00792	2.36789
6.00096	2.67435
5.99403	3.02917
5.98711	3.31473
5.9802	3.50741
5.97331	3.77306
5.96644	4.08214
5.95958	4.28118
5.95274	4.53116
5.94591	4.83474
5.9391	5.09919
5.9323	5.18382
5.92552	5.2052
5.91876	5.38857
5.91201	5.54433
5.90528	5.73438
5.89856	5.96163
5.89186	6.07718
5.88517	6.29812
5.8785	6.49619
5.87184	6.42654
5.8652	6.48305
5.85857	6.55023
5.85196	6.62633
5.84536	6.81824
5.83878	6.99583
5.83221	7.13074
5.82566	7.30791
5.81912	7.37321
5.81259	7.29499
5.80608	7.26883
5.79959	7.35495
5.79311	7.44647
5.78665	7.54113
5.78019	7.67709
5.77376	7.81765
5.76734	7.96203
5.76093	7.89631
5.75453	7.87159
5.74815	7.91226
5.74179	7.84511
5.73543	7.90774
5.7291	7.98174
5.72277	8.14748
5.71646	8.31753
5.71017	8.36545
5.70389	8.28998
5.69762	8.29463
5.69136	8.39022
5.68513	8.51402
5.6789	8.60284
5.67268	8.66022
5.66648	8.66384
5.6603	8.69749
5.65413	8.80529
5.64797	9.01882
5.64182	9.17737
5.63569	9.1873
5.62957	9.22579
5.62347	9.3301
5.61737	9.45339
5.61129	9.57475
5.60522	9.6629
5.59917	9.73746
5.59313	9.80737
5.5871	9.9957
5.58109	10.2107
5.57509	10.2822
5.5691	10.2685
5.56312	10.3289
5.55716	10.5247
5.55121	10.6684
5.54528	10.7682
5.53935	10.8097
5.53344	10.8824
5.52754	11.1396
5.52166	11.3123
5.51578	11.4174
5.50992	11.5882
5.50407	11.7608
5.49823	11.8591
5.49241	11.9571
5.4866	12.1368
5.4808	12.4454
5.47501	12.6006
5.46923	12.7922
5.46347	13.0231
5.45772	13.1169
5.45198	13.1713
5.44625	13.2675
5.44054	13.3797
5.43484	13.5197
5.42914	13.7396
5.42347	13.9891
5.4178	14.0303
5.41214	14.0418
5.4065	14.178
5.40087	14.3131
5.39525	14.4498
5.38964	14.4845
5.38404	14.5247
5.37846	14.6896
5.37288	14.8415
5.36732	14.9725
5.36177	15.074
5.35623	15.1692
5.35071	15.2948
5.34519	15.3592
5.33968	15.3826
5.33419	15.5113
5.32871	15.6211
5.32324	15.7188
5.31778	15.8055
5.31233	15.8501
5.30689	15.9634
5.30147	16.0987
5.29605	16.2579
5.29065	16.3858
5.28525	16.4764
5.27987	16.6585
5.2745	16.8288
5.26914	16.8521
5.26379	16.9029
5.25845	17.0261
5.25312	17.115
5.24781	17.1871
5.2425	17.3111
5.23721	17.4562
5.23192	17.5195
5.22665	17.523
5.22138	17.5998
5.21613	17.7533
5.21089	17.8518
5.20566	17.9209
5.20044	17.9837
5.19522	18.0092
5.19002	18.0789
5.18483	18.1388
5.17965	18.2496
5.17448	18.37
5.16933	18.4235
5.16418	18.5104
5.15904	18.5585
5.15391	18.655
5.14879	18.8379
5.14368	18.9375
5.13859	19.0412
5.1335	19.1366
5.12842	19.2656
5.12335	19.4621
5.1183	19.5564
5.11325	19.6553
5.10821	19.8315
5.10318	20.03
5.09817	20.1321
5.09316	20.1782
5.08816	20.2956
5.08317	20.4273
5.07819	20.4735
5.07322	20.5358
5.06826	20.7289
5.06331	20.8539
5.05837	20.9395
5.05344	21.0484
5.04852	21.1251
5.04361	21.1596
5.03871	21.1898
5.03382	21.266
5.02894	21.3047
5.02406	21.3983
5.0192	21.4483
5.01435	21.4646
5.0095	21.4705
5.00467	21.4592
4.99984	21.4722
4.99502	21.5106
4.99021	21.4387
4.98542	21.3438
4.98063	21.4033
4.97585	21.4293
4.97108	21.3439
4.96632	21.334
4.96156	21.3523
4.95682	21.3173
4.95209	21.3056
4.94736	21.2494
4.94264	21.1875
4.93794	21.1286
4.93324	21.0953
4.92855	21.116
4.92387	21.0695
4.9192	21.0175
4.91453	20.9694
4.90988	20.9389
4.90524	20.9689
4.9006	20.988
4.89597	21.0202
4.89135	21.079
4.88674	21.125
4.88214	21.1667
4.87755	21.2272
4.87296	21.3621
4.86839	21.4286
4.86382	21.6253
4.85926	21.7734
4.85471	21.7998
4.85017	21.9116
4.84564	22.1308
4.84111	22.3012
4.8366	22.3971
4.83209	22.5358
4.82759	22.6416
4.8231	22.7565
4.81862	22.8893
4.81415	23.0061
4.80968	23.0962
4.80522	23.1553
4.80077	23.236
4.79633	23.3601
4.7919	23.4366
4.78747	23.4972
4.78306	23.5558
4.77865	23.5943
4.77425	23.6741
4.76986	23.8094
4.76547	23.8706
4.7611	23.9361
4.75673	24.0281
4.75237	24.0926
4.74802	24.1139
4.74367	24.0957
4.73934	24.1221
4.73501	24.2025
4.73069	24.2426
4.72638	24.2782
4.72207	24.3703
4.71777	24.4757
4.71348	24.4435
4.7092	24.4772
4.70493	24.6062
4.70066	24.7177
4.69641	24.8053
4.69216	24.9495
4.68791	25.0665
4.68368	25.2245
4.67945	25.3721
4.67523	25.3985
4.67102	25.5032
4.66682	25.7793
4.66262	26.0529
4.65843	26.227
4.65425	26.3142
4.65007	26.4693
4.64591	26.7074
4.64175	26.9182
4.6376	27.1224
4.63345	27.3513
4.62932	27.4614
4.62519	27.5928
4.62106	27.9623
4.61695	28.3283
4.61284	28.582
4.60874	28.8371
4.60465	29.0571
4.60056	29.2632
4.59648	29.5043
4.59241	29.7835
4.58835	30.0249
4.58429	30.2957
4.58024	30.6004
4.5762	30.9271
4.57216	31.2809
4.56814	31.5446
4.56411	31.7623
4.5601	31.952
4.55609	32.2646
4.55209	32.5946
4.5481	32.8865
4.54411	33.1891
4.54013	33.4334
4.53616	33.7345
4.5322	34.0524
4.52824	34.2947
4.52429	34.5398
4.52034	34.7917
4.51641	35.0766
4.51247	35.2215
4.50855	35.3703
4.50463	35.6932
4.50072	36.0622
4.49682	36.4127
4.49292	36.6798
4.48903	36.8791
4.48515	37.1213
4.48127	37.2851
4.4774	37.4841
4.47354	37.8338
4.46968	38.0431
4.46584	38.2355
4.46199	38.5207
4.45815	38.8543
4.45432	39.1676
4.4505	39.4182
4.44668	39.6998
4.44287	40.0075
4.43907	40.3106
4.43527	40.5935
4.43148	40.8995
4.4277	41.2215
4.42392	41.5577
4.42015	41.8504
4.41638	42.2066
4.41262	42.6064
4.40887	42.9501
4.40513	43.2223
4.40139	43.5322
4.39765	43.9562
4.39393	44.2755
4.39021	44.5572
4.38649	44.9745
4.38278	45.3804
4.37908	45.6972
4.37539	46.0041
4.3717	46.3511
4.36801	46.6665
4.36434	47.007
4.36067	47.3783
4.357	47.7365
4.35335	48.0465
4.34969	48.334
4.34605	48.6457
4.34241	48.9609
4.33877	49.2522
4.33514	49.6403
4.33152	50.0054
4.32791	50.1815
4.3243	50.3794
4.32069	50.699
4.3171	50.9784
4.31351	51.3077
4.30992	51.6121
4.30634	51.961
4.30277	52.2196
4.2992	52.4517
4.29564	52.7067
4.29208	52.9771
4.28853	53.2256
4.28499	53.3761
4.28145	53.6617
4.27792	54.0042
4.27439	54.2357
4.27087	54.4148
4.26735	54.5627
4.26384	54.7822
4.26034	55.0785
4.25684	55.3528
4.25335	55.5574
4.24986	55.7158
4.24638	55.8943
4.24291	56.0726
4.23944	56.2356
4.23598	56.3735
4.23252	56.5489
4.22906	56.8042
4.22562	57.0822
4.22218	57.3388
4.21874	57.5732
4.21531	57.7882
4.21189	57.9898
4.20847	58.1929
4.20506	58.4211
4.20165	58.6413
4.19825	58.8144
4.19485	58.9062
4.19146	59.0902
4.18807	59.3124
4.18469	59.5228
4.18132	59.7478
4.17795	59.9748
4.17458	60.1631
4.17123	60.2995
4.16787	60.4674
4.16453	60.5903
4.16118	60.6764
4.15785	60.822
4.15451	61.0159
4.15119	61.2103
4.14787	61.4019
4.14455	61.4943
4.14124	61.5619
4.13794	61.7546
4.13464	61.9507
4.13134	62.0216
4.12805	62.1377
4.12477	62.2866
4.12149	62.4365
4.11822	62.6107
4.11495	62.7097
4.11168	62.8308
4.10843	63.019
4.10517	63.0989
4.10192	63.2159
4.09868	63.3667
4.09545	63.5033
4.09221	63.6188
4.08899	63.6995
4.08576	63.7587
4.08255	63.8097
4.07933	63.9074
4.07613	64.1125
4.07292	64.2804
4.06973	64.3366
4.06654	64.3981
4.06335	64.5447
4.06017	64.7017
4.05699	64.8073
4.05382	64.926
4.05065	64.9742
4.04749	65.0132
4.04433	65.0694
4.04118	65.1185
4.03803	65.2664
4.03489	65.3642
4.03175	65.3984
4.02862	65.4755
4.02549	65.4922
4.02237	65.5205
4.01925	65.6242
4.01614	65.7591
4.01303	65.8536
4.00993	65.8436
4.00683	65.9709
4.00373	66.1011
4.00064	66.0874
3.99756	66.0859
3.99448	66.1145
3.9914	66.1738
3.98833	66.2074
3.98527	66.2203
3.98221	66.3081
3.97915	66.4073
3.9761	66.4166
3.97305	66.4248
3.97001	66.5006
3.96697	66.5989
3.96394	66.6451
3.96091	66.6512
3.95789	66.7509
3.95487	66.8714
3.95186	66.9334
3.94885	66.944
3.94584	67.0613
3.94284	67.1528
3.93984	67.1623
3.93685	67.192
3.93386	67.2246
3.93088	67.2679
3.9279	67.2947
3.92493	67.274
3.92196	67.2908
3.919	67.37
3.91604	67.3971
3.91308	67.461
3.91013	67.566
3.90718	67.5765
3.90424	67.5327
3.9013	67.5025
3.89837	67.5205
3.89544	67.5667
3.89252	67.5985
3.8896	67.6168
3.88668	67.5949
3.88377	67.6519
3.88086	67.674
3.87796	67.7489
3.87506	67.7481
3.87217	67.7658
3.86928	67.7772
3.86639	67.804
3.86351	67.8404
3.86064	67.7846
3.85776	67.7547
3.8549	67.7226
3.85203	67.7066
3.84917	67.7372
3.84631	67.7476
3.84346	67.6781
3.84062	67.6914
3.83777	67.7374
3.83494	67.7998
3.8321	67.7715
3.82927	67.6763
3.82644	67.6218
3.82362	67.6266
3.82081	67.5795
3.81799	67.5043
3.81518	67.4497
3.81238	67.4892
3.80958	67.508
3.80678	67.4109
3.80399	67.3149
3.8012	67.2531
3.79841	67.2566
3.79563	67.2661
3.79286	67.2486
3.79008	67.1162
3.78731	66.9883
3.78455	66.9987
3.78179	67.073
3.77903	67.0875
3.77628	67.031
3.77353	67.1264
3.77079	67.3051
3.76805	67.3915
3.76531	67.498
3.76258	67.6425
3.75985	67.7
3.75713	67.719
3.7544	67.7214
3.75169	67.6984
3.74898	67.75
3.74627	67.7382
3.74356	67.7062
3.74086	67.5979
3.73816	67.529
3.73547	67.506
3.73278	67.5236
3.7301	67.5912
3.72741	67.5819
3.72474	67.533
3.72206	67.4718
3.71939	67.407
3.71673	67.3492
3.71406	67.2917
3.71141	67.2967
3.70875	67.2627
3.7061	67.1773
3.70345	67.1196
3.70081	67.0663
3.69817	67.0208
3.69553	66.955
3.6929	66.8797
3.69027	66.8407
3.68765	66.8036
3.68503	66.7216
3.68241	66.6583
3.6798	66.5563
3.67719	66.483
3.67458	66.4127
3.67198	66.3107
3.66938	66.2002
3.66678	66.1785
3.66419	66.1807
3.66161	66.1013
3.65902	65.9242
3.65644	65.8223
3.65387	65.8487
3.65129	65.7885
3.64872	65.6378
3.64616	65.5313
3.64359	65.4505
3.64103	65.3471
3.63848	65.2647
3.63593	65.1889
3.63338	65.1653
3.63084	65.0959
3.6283	64.9727
3.62576	64.8873
3.62322	64.7743
3.62069	64.7023
3.61817	64.5977
3.61564	64.4684
3.61312	64.3793
3.61061	64.3365
3.6081	64.2296
3.60559	64.072
3.60308	63.9796
3.60058	63.9516
3.59808	63.8845
3.59558	63.7666
3.59309	63.6556
3.59061	63.5242
3.58812	63.4862
3.58564	63.4538
3.58316	63.2941
3.58069	63.1513
3.57822	63.0426
3.57575	62.9701
3.57328	62.9858
3.57082	62.8967
3.56836	62.7259
3.56591	62.6519
3.56346	62.6507
3.56101	62.5831
3.55857	62.4773
3.55613	62.4158
3.55369	62.3329
3.55126	62.271
3.54883	62.1593
3.5464	61.9857
3.54397	61.891
3.54155	61.825
3.53914	61.7306
3.53672	61.689
3.53431	61.6979
3.5319	61.6674
3.5295	61.5954
3.5271	61.4504
3.5247	61.3115
3.52231	61.2938
3.51991	61.2621
3.51753	61.1823
3.51514	61.1354
3.51276	61.0691
3.51038	60.9779
3.50801	60.8696
3.50563	60.7753
3.50327	60.6956
3.5009	60.6131
3.49854	60.6055
3.49618	60.5185
3.49382	60.3862
3.49147	60.2303
3.48912	60.152
3.48677	60.1634
3.48443	60.1718
3.48209	60.1365
3.47975	60.0564
3.47742	59.8891
3.47509	59.7471
3.47276	59.6726
3.47044	59.6517
3.46812	59.5492
3.4658	59.3358
3.46348	59.2117
3.46117	59.2005
3.45886	59.1736
3.45656	59.0929
3.45425	58.9558
3.45195	58.7585
3.44966	58.5817
3.44736	58.5128
3.44507	58.3313
3.44279	58.1158
3.4405	58.0271
3.43822	57.9057
3.43594	57.7572
3.43367	57.6604
3.43139	57.542
3.42912	57.3754
3.42686	57.2628
3.42459	57.1331
3.42233	56.9148
3.42007	56.6494
3.41782	56.4177
3.41557	56.2458
3.41332	56.1582
3.41108	56.1092
3.40883	55.9715
3.40659	55.7602
3.40435	55.518
3.40212	55.3822
3.39989	55.2764
3.39766	55.1311
3.39544	54.9629
3.39322	54.802
3.391	54.6468
3.38878	54.4885
3.38657	54.3648
3.38436	54.2363
3.38215	54.0097
3.37994	53.8427
3.37774	53.7
3.37554	53.4602
3.37335	53.2538
3.37115	53.1558
3.36896	53.0071
3.36678	52.7869
3.36459	52.5848
3.36241	52.4392
3.36023	52.2665
3.35805	52.108
3.35588	51.9392
3.35371	51.7232
3.35154	51.4576
3.34938	51.2459
3.34721	51.151
3.34505	51.0023
3.3429	50.819
3.34074	50.636
3.33859	50.3805
3.33644	50.1548
3.3343	49.9862
3.33215	49.8378
3.33001	49.6806
3.32788	49.5492
3.32574	49.3653
3.32361	49.1735
3.32148	48.9977
3.31936	48.7236
3.31723	48.5749
3.31511	48.4738
3.31299	48.2649
3.31088	47.97
3.30876	47.7941
3.30665	47.6218
3.30455	47.3893
3.30244	47.1945
3.30034	47.0281
3.29824	46.8135
3.29614	46.5733
3.29405	46.4321
3.29196	46.2776
3.28987	46.065
3.28778	45.8679
3.2857	45.6797
3.28362	45.4338
3.28154	45.2424
3.27946	45.0173
3.27739	44.8047
3.27532	44.6603
3.27325	44.4906
3.27119	44.2928
3.26913	44.0669
3.26707	43.769
3.26501	43.5653
3.26295	43.3769
3.2609	43.285
3.25885	43.1828
3.2568	42.9892
3.25476	42.732
3.25272	42.5342
3.25068	42.3817
3.24864	42.1585
3.24661	41.9639
3.24458	41.7769
3.24255	41.5357
3.24052	41.3075
3.2385	41.1499
3.23648	40.8933
3.23446	40.6084
3.23244	40.2981
3.23043	40.1105
3.22841	40.0184
3.2264	39.7923
3.2244	39.498
3.22239	39.3076
3.22039	39.1355
3.21839	38.9194
3.2164	38.64
3.2144	38.3793
3.21241	38.144
3.21042	37.9247
3.20844	37.5847
3.20645	37.2454
3.20447	37.0091
3.20249	36.797
3.20051	36.5797
3.19854	36.3451
3.19657	36.0601
3.1946	35.8098
3.19263	35.6507
3.19067	35.4126
3.1887	35.1846
3.18674	34.9092
3.18479	34.606
3.18283	34.2419
3.18088	33.94
3.17893	33.5965
3.17698	33.3217
3.17504	33.0802
3.17309	32.8232
3.17115	32.6109
3.16921	32.3681
3.16728	32.0001
3.16534	31.7107
3.16341	31.5493
3.16148	31.3468
3.15956	30.9516
3.15763	30.6334
3.15571	30.3517
3.15379	30.0249
3.15187	29.7377
3.14996	29.5565
3.14805	29.2957
3.14614	28.9345
3.14423	28.5902
3.14232	28.3757
3.14042	28.1608
3.13852	27.7954
3.13662	27.454
3.13472	27.2016
3.13283	26.875
3.13094	26.5317
3.12905	26.1993
3.12716	25.8867
3.12528	25.6134
3.12339	25.2532
3.12151	24.7908
3.11964	24.3635
3.11776	24.0678
3.11589	23.7679
3.11401	23.3152
3.11214	22.8262
3.11028	22.3857
3.10841	22.0443
3.10655	21.7785
3.10469	21.4056
3.10283	20.9601
3.10098	20.5465
3.09912	20.0998
3.09727	19.6219
3.09542	19.2481
3.09358	18.8757
3.09173	18.5756
3.08989	18.1415
3.08805	17.7551
3.08621	17.532
3.08437	17.3383
3.08254	17.0158
3.08071	16.6759
3.07888	16.3813
3.07705	16.0677
3.07523	15.9264
3.0734	15.8846
3.07158	15.6913
3.06977	15.3853
3.06795	15.201
3.06613	15.0566
3.06432	14.904
3.06251	14.7502
3.0607	14.5641
3.0589	14.5123
3.0571	14.5888
3.05529	14.5349
3.05349	14.4019
3.0517	14.3677
3.0499	14.2821
3.04811	14.2676
3.04632	14.2023
3.04453	14.2012
3.04274	14.2643
3.04096	14.241
3.03918	14.1618
3.0374	14.1099
3.03562	14.0205
3.03384	13.907
3.03207	13.9161
3.03029	13.9908
3.02852	14.0652
3.02676	14.0489
3.02499	13.8537
3.02323	13.831
3.02146	13.8372
3.0197	13.5966
3.01795	13.4424
3.01619	13.4421
3.01444	13.496
3.01269	13.4543
3.01094	13.3018
3.00919	13.2259
3.00744	13.0651
3.0057	12.9313
3.00396	12.8296
3.00222	12.6461
3.00048	12.5541
2.99875	12.3593
2.99701	12.1532
2.99528	12.1383
2.99355	12.1759
2.99183	12.046
2.9901	11.9103
2.98838	11.8606
2.98666	11.6472
2.98494	11.4451
2.98322	11.2196
2.9815	10.9436
2.97979	10.8856
2.97808	10.8775
2.97637	10.6867
2.97466	10.5235
2.97295	10.4697
2.97125	10.4034
2.96955	10.3758
2.96785	10.2195
2.96615	10.0467
2.96446	9.89359
2.96276	9.69522
2.96107	9.54577
2.95938	9.48596
2.95769	9.36262
2.95601	9.02509
2.95432	8.82504
2.95264	8.75413
2.95096	8.6832
2.94928	8.64983
2.9476	8.62013
2.94593	8.45966
2.94425	8.16866
2.94258	7.98325
2.94092	7.8163
2.93925	7.70323
2.93758	7.61192
2.93592	7.48319
2.93426	7.3489
2.9326	7.22092
2.93094	7.08882
2.92928	6.95935
2.92763	6.79205
2.92598	6.87793
2.92433	6.75794
2.92268	6.41061
2.92103	6.35534
2.91939	6.31402
2.91775	6.16981
2.9161	6.08331
2.91447	6.02384
2.91283	5.93723
2.91119	5.78681
2.90956	5.59162
2.90793	5.44731
2.9063	5.35746
2.90467	5.32214
2.90304	5.23048
2.90142	5.15911
2.89979	5.15344
2.89817	4.99141
2.89656	4.97932
2.89494	4.97348
2.89332	4.80317
2.89171	4.65365
2.8901	4.63669
2.88849	4.62961
2.88688	4.47267
2.88527	4.42416
2.88367	4.43271
2.88206	4.28816
2.88046	4.04861
2.87886	4.07539
2.87727	4.15992
2.87567	4.08612
2.87408	4.04232
2.87248	4.0404
2.87089	4.0091
2.8693	3.8189
2.86772	3.63502
2.86613	3.73082
2.86455	3.87998
2.86297	3.87309
2.86139	3.8265
2.85981	3.75876
2.85823	3.75493
2.85666	3.66285
2.85508	3.65753
2.85351	3.68601
2.85194	3.56471
2.85038	3.36498
2.84881	3.4229
2.84724	3.436
2.84568	3.33597
2.84412	3.15962
2.84256	2.98286
2.841	3.00636
2.83945	2.9984
2.83789	2.9934
2.83634	3.02633
2.83479	2.89354
2.83324	2.77101
2.83169	2.83005
2.83015	2.91392
2.82861	2.97622
2.82706	2.79822
2.82552	2.67269
2.82398	2.75535
2.82245	2.88692
2.82091	2.77628
2.81938	2.67046
2.81784	2.55721
2.81631	2.52256
2.81479	2.41061
2.81326	2.42268
2.81173	2.42399
2.81021	2.41037
2.80869	2.51223
2.80716	2.53352
2.80565	2.47574
2.80413	2.58387
2.80261	2.58646
2.8011	2.65183
2.79959	2.77775
2.79808	2.84745
2.79657	2.81618
2.79506	2.58677
2.79355	2.39759
2.79205	2.40786
2.79055	2.5156
2.78904	2.5713
2.78754	2.58226
2.78605	2.7072
2.78455	2.69274
2.78306	2.35509
2.78156	1.89862
2.78007	1.70137
2.77858	1.92519
2.77709	2.13939
2.77561	2.19204
2.77412	2.17948
2.77264	2.11744
2.77116	2.00074
2.76968	1.96252
2.7682	1.88661
2.76672	1.82732
2.76524	1.77115
2.76377	1.82972
2.7623	1.95527
2.76083	1.75642
2.75936	1.69403
2.75789	1.83093
2.75642	1.99202
2.75496	2.01989
2.7535	2.17451
2.75203	2.3595
2.75057	2.30658
2.74912	2.36649
2.74766	2.44716
2.7462	2.68146
2.74475	2.89392
2.7433	3.06958
2.74185	3.4383
2.7404	4.07476
2.73895	4.53513
2.7375	4.78438
2.73606	5.24761
2.73462	5.69359
2.73318	5.90928
2.73174	6.17049
2.7303	6.55369
2.72886	6.8576
2.72742	6.9542
2.72599	7.09602
2.72456	7.49122
2.72313	7.85219
2.7217	8.0921
2.72027	8.32323
2.71884	8.3025
2.71742	8.43903
2.71599	8.89203
2.71457	9.39495
2.71315	9.85042
2.71173	10.5744
2.71032	11.2912
2.7089	11.8291
2.70748	12.4171
2.70607	13.0341
2.70466	13.5629
2.70325	14.1639
2.70184	14.7499
2.70043	15.2445
2.69903	15.8675
2.69762	16.3887
2.69622	16.8271
2.69482	17.4258
2.69342	17.9638
2.69202	18.1934
2.69062	18.6149
2.68923	19.1594
2.68783	19.5513
2.68644	19.9629
2.68505	20.3647
2.68366	20.8721
2.68227	21.2516
2.68089	21.5802
2.6795	22.0474
2.67812	22.4456
2.67673	22.9041
2.67535	23.095
2.67397	23.1553
2.6726	23.467
2.67122	24.1599
2.66984	24.5072
2.66847	24.4898
2.6671	25.1567
2.66572	25.7048
2.66435	25.8481
2.66299	25.8286
2.66162	26.1298
2.66025	26.459
2.65889	26.7235
2.65753	26.8245
2.65616	27.1428
2.65481	27.5069
2.65345	27.9713
2.65209	28.1968
2.65073	28.08
2.64938	28.2587
2.64803	28.827
2.64667	29.4119
2.64532	29.5973
2.64397	29.626
2.64263	29.98
2.64128	30.1961
2.63994	30.2367
2.63859	30.3618
2.63725	30.5157
2.63591	30.8659
2.63457	31.3496
2.63323	31.4847
2.6319	31.641
2.63056	32.0959
2.62923	31.9637
2.62789	31.9182
2.62656	32.2061
2.62523	32.0097
2.6239	31.9683
2.62258	32.1488
2.62125	32.6214
2.61993	32.7463
2.6186	32.6222
2.61728	33.0182
2.61596	32.9504
2.61464	32.6151
2.61332	32.5605
2.61201	32.4865
2.61069	32.6037
2.60938	32.8538
2.60807	32.8505
2.60675	32.8336
2.60544	32.9933
2.60414	32.7735
2.60283	32.5591
2.60152	32.6689
2.60022	32.5095
2.59891	32.2994
2.59761	32.466
2.59631	32.8928
2.59501	33.3587
2.59371	32.7158
2.59242	31.9017
2.59112	31.6361
2.58983	31.8182
2.58853	31.8446
2.58724	31.6977
2.58595	31.4543
2.58466	31.6283
2.58338	31.5898
2.58209	31.1246
2.5808	30.7692
2.57952	30.4447
2.57824	30.4016
2.57695	30.2514
2.57567	29.9548
2.5744	29.9977
2.57312	29.799
2.57184	29.2981
2.57057	29.2338
2.56929	29.1487
2.56802	28.7688
2.56675	28.3092
2.56548	28.1639
2.56421	28.1148
2.56294	27.8639
2.56168	27.5734
2.56041	27.1637
2.55915	26.6442
2.55789	26.4413
2.55662	26.2921
2.55536	25.9567
2.5541	25.8059
2.55285	25.7996
2.55159	25.6902
2.55034	25.3758
2.54908	25.0686
2.54783	24.9574
2.54658	24.7895
2.54533	24.6145
2.54408	24.6007
2.54283	24.7046
2.54159	24.612
2.54034	24.4844
2.5391	24.477
2.53785	24.4863
2.53661	24.5423
2.53537	24.5428
2.53413	24.619
2.53289	24.68
2.53166	24.702
2.53042	24.9116
2.52919	25.1656
2.52795	25.1377
2.52672	25.0645
2.52549	25.2448
2.52426	25.4474
2.52303	25.5185
2.52181	25.7039
2.52058	25.8734
2.51936	25.9711
2.51813	26.1443
2.51691	26.0853
2.51569	26.0473
2.51447	26.248
2.51325	26.4742
2.51203	26.4475
2.51082	26.3496
2.5096	26.3508
2.50839	26.471
2.50717	26.6297
2.50596	26.7959
2.50475	26.8633
2.50354	26.7993
2.50233	26.8195
2.50113	26.8841
2.49992	27.0375
2.49872	27.0878
2.49751	27.2232
2.49631	27.3801
2.49511	27.4278
2.49391	27.5288
2.49271	27.5538
2.49151	27.5344
2.49031	27.7044
2.48912	27.9672
2.48792	28.1699
2.48673	28.3805
2.48554	28.5688
2.48435	28.5986
2.48316	28.6527
2.48197	29.0669
2.48078	29.2793
2.4796	29.5049
2.47841	29.8895
2.47723	30.1733
2.47604	30.3067
2.47486	30.4513
2.47368	30.7314
2.4725	31.1536
2.47132	31.4928
2.47014	31.7026
2.46897	32.0227
2.46779	32.3794
2.46662	32.6305
2.46545	32.9682
2.46427	33.5145
2.4631	33.8741
2.46193	34.1401
2.46077	34.3951
2.4596	34.8111
2.45843	35.2536
2.45727	35.6711
2.4561	36.2157
2.45494	36.6307
2.45378	36.9638
2.45262	37.3791
2.45146	37.8813
2.4503	38.3938
2.44914	38.8693
2.44799	39.1905
2.44683	39.6072
2.44568	40.1221
2.44452	40.6971
2.44337	41.3039
2.44222	41.8557
2.44107	42.2674
2.43992	42.7304
2.43877	43.3341
2.43763	43.8476
2.43648	44.3733
2.43534	44.8802
2.43419	45.4707
2.43305	46.0919
2.43191	46.5491
2.43077	47.1326
2.42963	47.8577
2.42849	48.4982
2.42736	48.8838
2.42622	49.2446
2.42509	49.8527
2.42395	50.4763
2.42282	51.0308
2.42169	51.478
2.42056	51.9471
2.41943	52.4445
2.4183	52.8626
2.41717	53.2264
2.41605	53.7709
2.41492	54.2998
2.4138	54.7651
2.41267	55.2569
2.41155	55.5468
2.41043	55.7678
2.40931	56.1961
2.40819	56.714
2.40707	57.1197
2.40595	57.4155
2.40484	57.7813
2.40372	58.262
2.40261	58.6449
2.4015	58.913
2.40039	59.1822
2.39928	59.4128
2.39817	59.7603
2.39706	59.9953
2.39595	60.2729
2.39484	60.5852
2.39374	60.8725
2.39263	61.2111
2.39153	61.4802
2.39043	61.5621
2.38932	61.7222
2.38822	62.0712
2.38712	62.2408
2.38603	62.3854
2.38493	62.6077
2.38383	62.8021
2.38274	63.1449
2.38164	63.3097
2.38055	63.3784
2.37946	63.6409
2.37836	63.8992
2.37727	64.0811
2.37618	64.1476
2.3751	64.2766
2.37401	64.5356
2.37292	64.6931
2.37184	64.855
2.37075	65.0157
2.36967	65.1254
2.36859	65.3194
2.3675	65.609
2.36642	65.8001
2.36534	65.8408
2.36427	65.9675
2.36319	66.166
2.36211	66.2511
2.36104	66.3754
2.35996	66.5752
2.35889	66.683
2.35781	66.8312
2.35674	66.9524
2.35567	67.1213
2.3546	67.251
2.35353	67.1684
2.35247	67.231
2.3514	67.3366
2.35033	67.4709
2.34927	67.7212
2.3482	67.7866
2.34714	67.7398
2.34608	67.9729
2.34502	68.2627
2.34396	68.2611
2.3429	68.1914
2.34184	68.2278
2.34078	68.484
2.33973	68.6433
2.33867	68.7089
2.33762	68.6607
2.33656	68.71
2.33551	68.8756
2.33446	68.9441
2.33341	68.9313
2.33236	68.9084
2.33131	69.0933
2.33026	69.2014
2.32922	69.1931
2.32817	69.3039
2.32712	69.455
2.32608	69.4943
2.32504	69.5367
2.324	69.6702
2.32295	69.8201
2.32191	69.8793
2.32087	69.913
2.31984	69.8535
2.3188	69.9208
2.31776	70.1227
2.31673	70.244
2.31569	70.2769
2.31466	70.2812
2.31362	70.2566
2.31259	70.2887
2.31156	70.3613
2.31053	70.5778
2.3095	70.6969
2.30847	70.6443
2.30745	70.5916
2.30642	70.6208
2.3054	70.7456
2.30437	70.7696
2.30335	70.901
2.30232	71.0782
2.3013	71.323
2.30028	71.3801
2.29926	71.3056
2.29824	71.3023
2.29722	71.4437
2.29621	71.4446
2.29519	71.4564
2.29417	71.519
2.29316	71.6854
2.29215	71.9175
2.29113	71.9916
2.29012	71.9482
2.28911	71.9103
2.2881	72.0344
2.28709	72.1368
2.28608	72.2744
2.28507	72.4033
2.28407	72.4698
2.28306	72.4456
2.28206	72.4593
2.28105	72.5446
2.28005	72.6247
2.27905	72.7319
2.27805	72.7389
2.27705	72.8078
2.27605	72.9137
2.27505	72.9511
2.27405	72.9605
2.27305	72.9565
2.27206	72.892
2.27106	72.9661
2.27007	73.2075
2.26907	73.2463
2.26808	73.2038
2.26709	73.3179
2.2661	73.4078
2.26511	73.4854
2.26412	73.5561
2.26313	73.4397
2.26214	73.4884
2.26116	73.6306
2.26017	73.6606
2.25919	73.6063
2.2582	73.7065
2.25722	73.8847
2.25624	73.9422
2.25526	74.0242
2.25428	74.1465
2.2533	73.968
2.25232	73.8658
2.25134	73.9775
2.25036	74.0908
2.24939	74.1645
2.24841	74.1296
2.24744	74.0932
2.24646	74.0931
2.24549	74.1828
2.24452	74.3205
2.24355	74.2854
2.24257	74.3084
2.24161	74.2978
2.24064	74.3026
2.23967	74.4075
2.2387	74.5055
2.23774	74.4267
2.23677	74.4168
2.23581	74.528
2.23484	74.592
2.23388	74.4745
2.23292	74.3737
2.23196	74.4083
2.231	74.4496
2.23004	74.5423
2.22908	74.6391
2.22812	74.7235
2.22716	74.7328
2.22621	74.6669
2.22525	74.6852
2.2243	74.7275
2.22334	74.6575
2.22239	74.7241
2.22144	74.8878
2.22049	74.9134
2.21953	74.7843
2.21859	74.817
2.21764	74.9082
2.21669	74.8354
2.21574	74.8346
2.21479	74.8418
2.21385	74.966
2.2129	74.9367
2.21196	74.7666
2.21102	74.8707
2.21007	74.9807
2.20913	74.8779
2.20819	74.8858
2.20725	74.9707
2.20631	74.9726
2.20537	74.8607
2.20444	74.9389
2.2035	75.1809
2.20256	75.1754
2.20163	75.0458
2.20069	75.04
2.19976	75.0725
2.19883	75.0859
2.19789	75.1701
2.19696	75.1581
2.19603	75.0491
2.1951	74.911
2.19417	74.935
2.19325	74.9648
2.19232	74.9467
2.19139	74.8394
2.19047	74.848
2.18954	74.9903
2.18862	74.928
2.18769	74.939
2.18677	74.9141
2.18585	74.8692
2.18493	74.8556
2.18401	74.8742
2.18309	74.8984
2.18217	75.0312
2.18125	75.1173
2.18033	74.8975
2.17942	74.6818
2.1785	74.8176
2.17759	74.9404
2.17667	74.7909
2.17576	74.6587
2.17485	74.522
2.17393	74.6692
2.17302	74.7151
2.17211	74.6382
2.1712	74.778
2.17029	74.7892
2.16939	74.6799
2.16848	74.465
2.16757	74.3862
2.16667	74.488
2.16576	74.624
2.16486	74.6239
2.16395	74.3886
2.16305	74.3323
2.16215	74.3917
2.16125	74.3692
2.16035	74.2758
2.15945	74.2028
2.15855	73.9975
2.15765	73.828
2.15675	73.9286
2.15586	73.938
2.15496	73.8997
2.15406	73.8693
2.15317	73.7279
2.15228	73.579
2.15138	73.5408
2.15049	73.661
2.1496	73.5775
2.14871	73.4387
2.14782	73.3635
2.14693	73.2758
2.14604	73.3559
2.14515	73.3254
2.14427	73.1601
2.14338	73.1651
2.14249	73.2193
2.14161	73.3218
2.14072	73.2785
2.13984	73.3334
2.13896	73.3574
2.13808	73.3
2.13719	73.232
2.13631	73.1547
2.13543	73.1391
2.13455	73.2084
2.13368	73.2521
2.1328	73.196
2.13192	73.0999
2.13105	72.8892
2.13017	73.1275
2.1293	73.373
2.12842	73.2909
2.12755	73.3481
2.12668	73.4209
2.1258	73.378
2.12493	73.4698
2.12406	73.5615
2.12319	73.6772
2.12232	73.6784
2.12145	73.7625
2.12059	73.8938
2.11972	73.8151
2.11885	73.8753
2.11799	74.0003
2.11712	74.0304
2.11626	74.3889
2.1154	74.5249
2.11453	74.4765
2.11367	74.54
2.11281	74.4791
2.11195	74.6359
2.11109	74.7876
2.11023	74.7733
2.10937	74.7748
2.10851	74.9673
2.10766	75.0759
2.1068	74.765
2.10594	74.8286
2.10509	75.1469
2.10423	75.3428
2.10338	75.1688
2.10253	75.4289
2.10168	75.7993
2.10082	75.7135
2.09997	75.6875
2.09912	75.7753
2.09827	75.7479
2.09742	75.6358
2.09658	75.7307
2.09573	75.8561
2.09488	75.9495
2.09404	76.0506
2.09319	76.0026
2.09235	76.1503
2.0915	76.1954
2.09066	76.2546
2.08982	76.3872
2.08897	76.5246
2.08813	76.5668
2.08729	76.7047
2.08645	76.7727
2.08561	76.6133
2.08477	76.3982
2.08394	76.3461
2.0831	76.623
2.08226	76.8874
2.08143	76.8062
2.08059	76.5644
2.07976	76.4261
2.07892	76.5162
2.07809	76.6815
2.07726	76.643
2.07643	76.7671
2.07559	76.8515
2.07476	76.7654
2.07393	76.8452
2.0731	76.7534
2.07228	76.8231
2.07145	77.065
2.07062	77.2296
2.06979	77.0105
2.06897	76.6429
2.06814	76.6897
2.06732	76.7032
2.06649	76.5923
2.06567	76.6783
2.06485	76.8815
2.06403	77.0334
2.0632	76.8629
2.06238	76.7214
2.06156	76.7728
2.06074	76.797
2.05993	76.8458
2.05911	76.8953
2.05829	76.8836
2.05747	76.7688
2.05666	76.471
2.05584	76.5346
2.05503	76.7313
2.05421	76.7436
2.0534	76.6408
2.05259	76.8539
2.05177	77.058
2.05096	76.8549
2.05015	76.7306
2.04934	76.7816
2.04853	76.5031
2.04772	76.4979
2.04691	76.601
2.04611	76.6382
2.0453	76.5518
2.04449	76.6166
2.04369	76.7539
2.04288	76.6231
2.04208	76.5232
2.04127	76.5073
2.04047	76.4583
2.03967	76.4327
2.03886	76.3261
2.03806	76.4135
2.03726	76.4329
2.03646	76.4846
2.03566	76.6756
2.03486	76.4374
2.03407	76.3095
2.03327	76.5215
2.03247	76.5428
2.03167	76.3269
2.03088	76.289
2.03008	76.4365
2.02929	76.3192
2.0285	76.1918
2.0277	76.1408
2.02691	76.2621
2.02612	76.2807
2.02533	76.25
2.02453	76.417
2.02374	76.3857
2.02295	76.0187
2.02217	75.7947
2.02138	75.9576
2.02059	76.0432
2.0198	76.1669
2.01902	76.3082
2.01823	76.2441
2.01744	75.8971
2.01666	75.7738
2.01588	75.7315
2.01509	75.8275
2.01431	75.9002
2.01353	75.9199
2.01275	75.8641
2.01196	75.7733
2.01118	75.7994
2.0104	75.7943
2.00963	75.7992
2.00885	75.779
2.00807	75.7684
2.00729	75.7259
2.00651	75.5981
2.00574	75.4815
2.00496	75.2833
2.00419	75.2931
2.00341	75.2792
2.00264	75.1267
2.00187	74.949
2.00109	74.9182
2.00032	75.005
