Name: Quartz SiO_2
Type: Mineral
Class: Silicates
Subclass: Tectosilicates
Particle Size: 45-125um
Sample No.: TS-1E
Owner: JPL
Wavelength range: IR
Origin: 
Collected by JPL
Description:  Crysoprase 





Measurement: Hemispherical reflectance
First Column: X
Second Column: Y
X Units:  Wavelength (micrometers)
Y Units:  Reflectance (percent)
First X Value: 15.3853
Last X Value: 2.00032
Number of X Values: 2256
Additional information: ts01ea.txt
 
15.3853	3.35456
15.3397	3.60356
15.2945	3.46099
15.2495	3.06124
15.2048	3.08264
15.1603	3.48552
15.1161	3.48655
15.0722	3.15071
15.0285	3.02576
14.9851	3.02711
14.9419	3.03461
14.8989	2.94819
14.8563	2.80431
14.8138	2.75858
14.7716	2.87474
14.7296	2.7174
14.6879	2.70139
14.6464	2.94951
14.6052	2.90735
14.5641	2.79269
14.5233	2.88451
14.4828	3.11039
14.4424	3.07155
14.4023	2.95684
14.3624	2.8226
14.3227	2.48616
14.2833	2.26655
14.244	2.15301
14.205	2.1317
14.1662	2.31955
14.1276	2.45036
14.0892	2.43224
14.051	2.63342
14.0131	2.78816
13.9753	2.74276
13.9377	2.85152
13.9004	2.89034
13.8632	2.99882
13.8262	3.16021
13.7895	3.34019
13.7529	3.39264
13.7165	3.36627
13.6803	3.42638
13.6443	3.5549
13.6085	3.50719
13.5729	3.5167
13.5374	3.51864
13.5022	3.59144
13.4671	3.79787
13.4322	3.95872
13.3975	3.92929
13.363	3.87998
13.3286	3.78223
13.2944	3.7265
13.2604	4.04513
13.2266	4.22899
13.193	4.1148
13.1595	4.15092
13.1262	4.3405
13.093	4.4775
13.06	4.61118
13.0272	5.01038
12.9946	5.24464
12.9621	5.54031
12.9298	6.08176
12.8976	6.82035
12.8656	7.44201
12.8337	7.87892
12.8021	7.91004
12.7705	7.54546
12.7391	7.13293
12.7079	6.52783
12.6769	5.82869
12.6459	5.51724
12.6152	5.71288
12.5845	6.18394
12.5541	6.5494
12.5238	6.83662
12.4936	6.70375
12.4635	6.34713
12.4337	5.63947
12.4039	4.19502
12.3743	2.62448
12.3448	1.48296
12.3155	0.915567
12.2863	0.849313
12.2573	0.756492
12.2284	0.840225
12.1996	0.927575
12.171	1.01348
12.1425	1.23335
12.1141	1.52503
12.0859	1.75649
12.0578	1.70441
12.0298	1.81572
12.0019	2.15788
11.9742	2.3182
11.9466	2.25962
11.9192	2.28197
11.8918	2.44002
11.8646	2.55193
11.8375	2.7213
11.8106	2.81363
11.7837	2.9272
11.757	3.01973
11.7304	2.92606
11.7039	2.94922
11.6776	3.0898
11.6513	3.11666
11.6252	3.20063
11.5992	3.28175
11.5733	3.29326
11.5475	3.35023
11.5219	3.53408
11.4963	3.60132
11.4709	3.59217
11.4455	3.52778
11.4203	3.58769
11.3952	3.74517
11.3702	3.70317
11.3454	3.59638
11.3206	3.58006
11.2959	3.6814
11.2714	3.77243
11.2469	3.77799
11.2226	3.77797
11.1983	3.89113
11.1742	3.95668
11.1502	3.95652
11.1263	3.96556
11.1024	3.98773
11.0787	4.06536
11.0551	4.00313
11.0316	3.96515
11.0081	4.06868
10.9848	4.08073
10.9616	4.00683
10.9385	4.03549
10.9154	4.27051
10.8925	4.36714
10.8697	4.27101
10.8469	4.20588
10.8243	4.29234
10.8017	4.27226
10.7793	4.23575
10.7569	4.39757
10.7346	4.49858
10.7125	4.40969
10.6904	4.35152
10.6684	4.51368
10.6465	4.6284
10.6247	4.63803
10.6029	4.52091
10.5813	4.49185
10.5597	4.56874
10.5383	4.62118
10.5169	4.67717
10.4956	4.73552
10.4744	4.90229
10.4533	5.01324
10.4323	5.02958
10.4113	5.07391
10.3904	5.09741
10.3697	5.12488
10.349	5.13277
10.3284	5.12544
10.3078	5.1608
10.2874	5.23223
10.267	5.38771
10.2467	5.51824
10.2265	5.58789
10.2064	5.65557
10.1863	5.66096
10.1663	5.71669
10.1464	5.8593
10.1266	5.99319
10.1069	6.06709
10.0872	6.06211
10.0676	6.09508
10.0481	6.26589
10.0287	6.45978
10.0093	6.45287
9.99005	6.46189
9.97084	6.77923
9.95169	7.01745
9.93263	7.06007
9.91364	7.13669
9.89472	7.25927
9.87587	7.41516
9.8571	7.58787
9.83839	7.75841
9.81976	7.92825
9.80119	8.11931
9.78271	8.43746
9.76428	8.6629
9.74592	8.87398
9.72764	9.13062
9.70943	9.36473
9.69128	9.63097
9.6732	9.87469
9.65518	10.1601
9.63724	10.5471
9.61935	11.0355
9.60155	11.4388
9.5838	11.8042
9.56611	12.1655
9.5485	12.6696
9.53094	13.4108
9.51345	14.2598
9.49604	15.0205
9.47867	15.9449
9.46137	17.1331
9.44414	18.4905
9.42697	20.069
9.40986	22.0107
9.39281	24.3453
9.37583	26.8479
9.35891	29.2481
9.34204	31.3563
9.32524	33.1229
9.3085	34.4998
9.29182	35.3416
9.27519	35.7964
9.25863	36.0372
9.24213	36.101
9.22568	36.149
9.2093	36.1627
9.19297	36.1761
9.17669	36.2346
9.16048	36.1826
9.14433	36.1803
9.12823	36.1658
9.11218	35.938
9.0962	35.7531
9.08027	35.4705
9.06439	35.2379
9.04858	35.2153
9.03281	35.0845
9.0171	34.8019
9.00145	34.3424
8.98585	33.8769
8.9703	33.4606
8.9548	33.0468
8.93937	32.7032
8.92398	32.2502
8.90865	31.6558
8.89337	31.023
8.87814	30.4418
8.86296	29.9844
8.84784	29.4338
8.83277	28.8661
8.81774	28.4807
8.80277	28.0092
8.78786	27.4485
8.77298	26.9172
8.75816	26.4948
8.7434	26.2043
8.72868	25.7161
8.714	25.1177
8.69938	24.4979
8.68481	23.6358
8.67029	22.4903
8.65581	20.9457
8.64139	19.1717
8.62701	18.3428
8.61268	19.2923
8.5984	21.2196
8.58416	22.9444
8.56997	24.0177
8.55583	24.8576
8.54174	25.5094
8.52769	25.9218
8.51368	26.2073
8.49973	26.4842
8.48582	26.7805
8.47195	27.0504
8.45813	27.2683
8.44436	27.53
8.43062	27.8315
8.41693	27.9625
8.4033	28.2023
8.3897	28.4486
8.37614	28.6457
8.36264	28.9354
8.34917	29.2066
8.33574	29.4905
8.32236	29.8306
8.30903	30.2464
8.29573	30.6917
8.28248	31.1709
8.26927	31.7073
8.2561	32.2285
8.24298	32.7124
8.2299	32.9597
8.21685	33.0943
8.20385	33.0748
8.19089	32.9153
8.17797	32.422
8.16509	31.5443
8.15225	30.3158
8.13946	28.8522
8.1267	27.1316
8.11398	25.3134
8.10131	23.6158
8.08867	22.0511
8.07606	20.618
8.0635	19.238
8.05099	17.8784
8.0385	16.5965
8.02606	15.4515
8.01366	14.4377
8.00129	13.4024
7.98896	12.3557
7.97667	11.3474
7.96442	10.4471
7.9522	9.55454
7.94002	8.71395
7.92788	7.83511
7.91578	6.99241
7.90371	6.27345
7.89168	5.68949
7.87969	5.19318
7.86773	4.67799
7.85581	4.1138
7.84392	3.66259
7.83207	3.35082
7.82026	3.10622
7.80849	2.86656
7.79674	2.68037
7.78503	2.51354
7.77337	2.27774
7.76173	2.06435
7.75012	1.93937
7.73856	1.74508
7.72703	1.43844
7.71553	1.12111
7.70406	1.04926
7.69263	1.14896
7.68123	1.00957
7.66987	0.833261
7.65855	0.671094
7.64725	0.623059
7.63598	0.539585
7.62475	0.407881
7.61356	0.347998
7.60239	0.331143
7.59126	0.269313
7.58017	0.256082
7.5691	0.2793
7.55806	0.2459
7.54707	0.188585
7.5361	0.123656
7.52516	0.0972548
7.51425	0.0569893
7.50338	-0.0437759
7.49253	-0.000814429
7.48172	0.0776096
7.47094	0.158047
7.46019	0.16214
7.44947	0.128525
7.43879	0.101199
7.42813	0.0878706
7.4175	0.0562384
7.4069	0.100497
7.39634	0.099699
7.3858	0.0813303
7.37529	0.133889
7.36482	0.19172
7.35437	0.20265
7.34396	0.188181
7.33357	0.0943076
7.32321	0.0380543
7.31288	0.0460732
7.30258	0.140017
7.29231	0.231802
7.28207	0.190699
7.27185	0.0421766
7.26167	0.00145536
7.25152	0.0856237
7.24139	0.210519
7.23129	0.190345
7.22122	0.147641
7.21117	0.247411
7.20116	0.263552
7.19117	0.296694
7.18121	0.346377
7.17128	0.298259
7.16137	0.274611
7.1515	0.28992
7.14164	0.360837
7.13182	0.410216
7.12203	0.388588
7.11225	0.402596
7.10251	0.448753
7.0928	0.430832
7.08311	0.411848
7.07344	0.516395
7.06381	0.561517
7.0542	0.540701
7.04461	0.517379
7.03506	0.485839
7.02552	0.572522
7.01601	0.627231
7.00653	0.593428
6.99708	0.708124
6.98765	0.785848
6.97824	0.778343
6.96886	0.841678
6.95951	0.931667
6.95018	0.926675
6.94087	0.929475
6.9316	0.907965
6.92234	0.93308
6.91311	0.966576
6.90391	1.05059
6.89473	1.0976
6.88557	1.05872
6.87644	1.07325
6.86733	1.05864
6.85824	0.999355
6.84918	1.12616
6.84015	1.23105
6.83114	1.1705
6.82215	1.06135
6.81319	1.0832
6.80424	1.14948
6.79532	1.16619
6.78643	1.10854
6.77756	1.0786
6.76871	1.10002
6.75989	1.06191
6.75109	1.04459
6.74231	0.977578
6.73355	0.862042
6.72482	0.823559
6.71611	0.846621
6.70742	0.899224
6.69875	0.871488
6.69011	0.893577
6.68149	0.986856
6.67289	1.08321
6.66431	1.14952
6.65576	1.18144
6.64722	1.25894
6.63871	1.25761
6.63022	1.17583
6.62175	1.10093
6.61331	1.13073
6.60488	1.13618
6.59648	1.13079
6.5881	1.13936
6.57974	1.06471
6.5714	1.02126
6.56308	1.06761
6.55478	1.03528
6.54651	1.09276
6.53825	1.14925
6.53001	1.25777
6.5218	1.3813
6.51361	1.51508
6.50544	1.66342
6.49729	1.88431
6.48915	2.14183
6.48104	2.26435
6.47295	2.44933
6.46488	2.659
6.45683	2.75797
6.4488	2.92653
6.44079	3.11675
6.4328	3.27118
6.42482	3.30087
6.41687	3.26566
6.40894	3.16181
6.40103	2.99142
6.39314	2.83206
6.38526	2.76286
6.37741	2.65218
6.36957	2.48745
6.36176	2.22106
6.35396	2.08972
6.34618	2.07059
6.33843	1.92608
6.33069	1.81518
6.32297	1.67493
6.31527	1.54641
6.30758	1.39896
6.29992	1.3274
6.29227	1.28116
6.28465	1.18801
6.27704	1.11423
6.26945	1.08239
6.26188	1.07033
6.25432	1.03589
6.24679	0.998378
6.23927	0.961859
6.23177	0.930102
6.22429	0.896911
6.21683	0.926331
6.20938	0.869669
6.20195	0.791435
6.19454	0.913067
6.18715	1.00479
6.17978	1.00846
6.17242	1.01331
6.16508	1.1153
6.15776	1.2732
6.15045	1.37364
6.14317	1.47432
6.1359	1.6231
6.12864	1.73682
6.12141	1.79514
6.11419	1.95112
6.10699	2.08674
6.0998	2.12353
6.09263	2.13249
6.08549	2.31132
6.07835	2.58492
6.07123	2.61076
6.06413	2.53077
6.05705	2.62886
6.04998	2.77247
6.04293	2.69264
6.0359	2.64794
6.02888	2.76471
6.02187	2.72542
6.01489	2.68118
6.00792	2.61278
6.00096	2.47761
5.99403	2.40674
5.98711	2.29588
5.9802	2.21255
5.97331	2.1572
5.96644	1.99825
5.95958	1.87282
5.95274	1.77261
5.94591	1.67874
5.9391	1.71837
5.9323	1.85801
5.92552	1.97021
5.91876	2.0245
5.91201	2.04029
5.90528	2.20114
5.89856	2.46096
5.89186	2.56116
5.88517	2.6673
5.8785	2.89175
5.87184	3.01147
5.8652	3.25365
5.85857	3.41294
5.85196	3.54115
5.84536	3.80406
5.83878	4.01399
5.83221	4.22647
5.82566	4.51503
5.81912	4.76
5.81259	4.95806
5.80608	5.1664
5.79959	5.36632
5.79311	5.57606
5.78665	5.74631
5.78019	5.98862
5.77376	6.33167
5.76734	6.62349
5.76093	6.72742
5.75453	6.87931
5.74815	7.12416
5.74179	7.24818
5.73543	7.39009
5.7291	7.55663
5.72277	7.64719
5.71646	7.6393
5.71017	7.71979
5.70389	7.62652
5.69762	7.40377
5.69136	7.18924
5.68513	6.87931
5.6789	6.47594
5.67268	6.04425
5.66648	5.63442
5.6603	5.189
5.65413	4.69435
5.64797	4.30046
5.64182	3.9318
5.63569	3.54812
5.62957	3.22752
5.62347	2.96395
5.61737	2.77268
5.61129	2.64112
5.60522	2.58345
5.59917	2.5083
5.59313	2.39676
5.5871	2.34827
5.58109	2.34391
5.57509	2.32319
5.5691	2.35854
5.56312	2.39135
5.55716	2.52235
5.55121	2.64488
5.54528	2.68735
5.53935	2.74954
5.53344	2.83411
5.52754	3.00797
5.52166	3.21143
5.51578	3.41574
5.50992	3.52139
5.50407	3.64454
5.49823	3.84893
5.49241	4.0097
5.4866	4.23855
5.4808	4.51807
5.47501	4.69224
5.46923	4.79877
5.46347	4.88695
5.45772	4.88052
5.45198	4.84062
5.44625	4.77046
5.44054	4.61119
5.43484	4.41486
5.42914	4.1267
5.42347	3.75892
5.4178	3.40356
5.41214	3.02241
5.4065	2.64545
5.40087	2.30668
5.39525	2.05852
5.38964	1.83005
5.38404	1.63515
5.37846	1.63436
5.37288	1.53982
5.36732	1.41983
5.36177	1.32452
5.35623	1.26991
5.35071	1.33701
5.34519	1.35026
5.33968	1.32432
5.33419	1.29678
5.32871	1.24665
5.32324	1.25903
5.31778	1.24094
5.31233	1.19114
5.30689	1.29655
5.30147	1.42506
5.29605	1.46045
5.29065	1.45433
5.28525	1.42292
5.27987	1.48227
5.2745	1.5443
5.26914	1.68839
5.26379	1.89021
5.25845	2.03718
5.25312	2.2412
5.24781	2.46039
5.2425	2.64215
5.23721	2.85645
5.23192	3.14567
5.22665	3.54755
5.22138	3.95949
5.21613	4.31557
5.21089	4.59005
5.20566	4.78259
5.20044	4.87742
5.19522	4.86003
5.19002	4.82128
5.18483	4.82261
5.17965	4.83028
5.17448	4.83618
5.16933	4.82126
5.16418	4.74215
5.15904	4.68977
5.15391	4.6774
5.14879	4.57983
5.14368	4.5134
5.13859	4.50632
5.1335	4.45857
5.12842	4.37295
5.12335	4.37224
5.1183	4.39514
5.11325	4.41645
5.10821	4.4353
5.10318	4.29719
5.09817	4.12762
5.09316	4.03999
5.08816	3.88035
5.08317	3.70156
5.07819	3.58358
5.07322	3.55875
5.06826	3.49332
5.06331	3.34521
5.05837	3.30315
5.05344	3.39074
5.04852	3.39867
5.04361	3.29081
5.03871	3.18033
5.03382	3.21008
5.02894	3.30219
5.02406	3.32286
5.0192	3.16392
5.01435	3.04384
5.0095	3.15838
5.00467	3.29349
4.99984	3.33138
4.99502	3.40457
4.99021	3.47154
4.98542	3.58899
4.98063	3.85219
4.97585	4.14436
4.97108	4.44687
4.96632	4.79897
4.96156	5.21796
4.95682	5.59411
4.95209	5.94824
4.94736	6.26279
4.94264	6.47713
4.93794	6.62901
4.93324	6.82448
4.92855	7.17669
4.92387	7.59321
4.9192	8.11265
4.91453	8.87907
4.90988	9.84916
4.90524	10.8547
4.9006	12.031
4.89597	13.457
4.89135	14.8773
4.88674	16.2894
4.88214	17.7067
4.87755	18.9294
4.87296	20.0959
4.86839	21.213
4.86382	22.1952
4.85926	23.1148
4.85471	23.9832
4.85017	24.7814
4.84564	25.5454
4.84111	26.2417
4.8366	26.8906
4.83209	27.5038
4.82759	28.0781
4.8231	28.673
4.81862	29.1211
4.81415	29.6093
4.80968	30.2319
4.80522	30.7317
4.80077	31.1314
4.79633	31.5708
4.7919	31.9773
4.78747	32.3419
4.78306	32.7388
4.77865	33.1188
4.77425	33.455
4.76986	33.8233
4.76547	34.1564
4.7611	34.4035
4.75673	34.5909
4.75237	34.7891
4.74802	34.9903
4.74367	35.164
4.73934	35.2747
4.73501	35.4096
4.73069	35.5049
4.72638	35.4642
4.72207	35.3309
4.71777	35.1545
4.71348	35.0231
4.7092	34.8198
4.70493	34.2978
4.70066	33.6592
4.69641	33.0317
4.69216	32.4044
4.68791	31.8461
4.68368	31.5216
4.67945	31.6319
4.67523	32.0572
4.67102	32.7337
4.66682	33.5121
4.66262	34.2886
4.65843	34.9524
4.65425	35.5676
4.65007	36.2026
4.64591	36.8631
4.64175	37.4586
4.6376	38.0755
4.63345	38.698
4.62932	39.2911
4.62519	39.7699
4.62106	40.1666
4.61695	40.5279
4.61284	40.8171
4.60874	40.9847
4.60465	41.2239
4.60056	41.4398
4.59648	41.5894
4.59241	41.7029
4.58835	41.8332
4.58429	41.8981
4.58024	41.8775
4.5762	41.7829
4.57216	41.7256
4.56814	41.6873
4.56411	41.5504
4.5601	41.2593
4.55609	40.9452
4.55209	40.5751
4.5481	40.1791
4.54411	39.6492
4.54013	39.0647
4.53616	38.3812
4.5322	37.6751
4.52824	36.9531
4.52429	36.0967
4.52034	35.1413
4.51641	34.2146
4.51247	33.2792
4.50855	32.3365
4.50463	31.4443
4.50072	30.744
4.49682	30.1178
4.49292	29.6008
4.48903	29.2663
4.48515	29.0041
4.48127	28.7153
4.4774	28.3895
4.47354	28.1471
4.46968	28.0464
4.46584	28.1335
4.46199	28.3385
4.45815	28.6394
4.45432	29.1238
4.4505	29.5469
4.44668	29.8858
4.44287	30.2369
4.43907	30.5402
4.43527	30.7843
4.43148	31.0592
4.4277	31.3783
4.42392	31.7168
4.42015	32.1357
4.41638	32.5653
4.41262	32.9216
4.40887	33.3611
4.40513	33.8803
4.40139	34.3933
4.39765	34.8426
4.39393	35.3376
4.39021	35.8939
4.38649	36.4951
4.38278	37.1125
4.37908	37.7527
4.37539	38.334
4.3717	38.8343
4.36801	39.3316
4.36434	39.8942
4.36067	40.4369
4.357	40.8974
4.35335	41.3741
4.34969	41.8366
4.34605	42.1739
4.34241	42.5018
4.33877	42.8237
4.33514	43.0684
4.33152	43.2037
4.32791	43.2977
4.3243	43.4227
4.32069	43.4603
4.3171	43.446
4.31351	43.4633
4.30992	43.4714
4.30634	43.3438
4.30277	43.2853
4.2992	43.3074
4.29564	43.2549
4.29208	43.2492
4.28853	43.3158
4.28499	43.3696
4.28145	43.298
4.27792	43.2324
4.27439	43.4058
4.27087	43.7979
4.26735	44.2932
4.26384	44.7051
4.26034	44.943
4.25684	45.159
4.25335	45.33
4.24986	45.3447
4.24638	45.3231
4.24291	45.3301
4.23944	45.2849
4.23598	45.3235
4.23252	45.3978
4.22906	45.4425
4.22562	45.4521
4.22218	45.4834
4.21874	45.5863
4.21531	45.6747
4.21189	45.6738
4.20847	45.6709
4.20506	45.627
4.20165	45.5653
4.19825	45.619
4.19485	45.7784
4.19146	45.95
4.18807	46.1211
4.18469	46.2776
4.18132	46.4415
4.17795	46.6173
4.17458	46.824
4.17123	47.1239
4.16787	47.3379
4.16453	47.4809
4.16118	47.6301
4.15785	47.7888
4.15451	48.0087
4.15119	48.1858
4.14787	48.3383
4.14455	48.4944
4.14124	48.735
4.13794	48.9462
4.13464	49.1154
4.13134	49.3104
4.12805	49.5319
4.12477	49.7283
4.12149	49.9248
4.11822	50.169
4.11495	50.4644
4.11168	50.7036
4.10843	50.9071
4.10517	51.042
4.10192	51.2668
4.09868	51.513
4.09545	51.7043
4.09221	51.9506
4.08899	52.1948
4.08576	52.3529
4.08255	52.5004
4.07933	52.6262
4.07613	52.7809
4.07292	52.8853
4.06973	52.9926
4.06654	53.0602
4.06335	53.1206
4.06017	53.1573
4.05699	53.2074
4.05382	53.2291
4.05065	53.2577
4.04749	53.2952
4.04433	53.2818
4.04118	53.2204
4.03803	53.223
4.03489	53.2341
4.03175	53.1702
4.02862	53.1043
4.02549	53.1061
4.02237	53.0781
4.01925	53.0441
4.01614	53.0828
4.01303	53.0938
4.00993	53.0554
4.00683	52.9915
4.00373	53.0262
4.00064	53.1009
3.99756	53.1403
3.99448	53.1448
3.9914	53.1777
3.98833	53.3026
3.98527	53.4192
3.98221	53.5022
3.97915	53.5311
3.9761	53.573
3.97305	53.6581
3.97001	53.7328
3.96697	53.8556
3.96394	53.9996
3.96091	54.1097
3.95789	54.1739
3.95487	54.2316
3.95186	54.3366
3.94885	54.4323
3.94584	54.5407
3.94284	54.6286
3.93984	54.6707
3.93685	54.6989
3.93386	54.8103
3.93088	54.9149
3.9279	54.9353
3.92493	54.9312
3.92196	54.9316
3.919	54.9578
3.91604	54.9071
3.91308	54.7601
3.91013	54.7054
3.90718	54.6922
3.90424	54.7075
3.9013	54.6064
3.89837	54.449
3.89544	54.322
3.89252	54.264
3.8896	54.1347
3.88668	53.9796
3.88377	53.8466
3.88086	53.6809
3.87796	53.5654
3.87506	53.4642
3.87217	53.3505
3.86928	53.2754
3.86639	53.1798
3.86351	53.0876
3.86064	52.9874
3.85776	52.9876
3.8549	52.9103
3.85203	52.8024
3.84917	52.7272
3.84631	52.6773
3.84346	52.6293
3.84062	52.616
3.83777	52.7165
3.83494	52.7841
3.8321	52.705
3.82927	52.656
3.82644	52.6678
3.82362	52.6714
3.82081	52.6561
3.81799	52.6195
3.81518	52.5517
3.81238	52.5451
3.80958	52.538
3.80678	52.471
3.80399	52.4138
3.8012	52.3127
3.79841	52.2281
3.79563	52.2291
3.79286	52.2041
3.79008	52.0759
3.78731	51.9581
3.78455	51.7693
3.78179	51.5539
3.77903	51.439
3.77628	51.3118
3.77353	51.1848
3.77079	51.0764
3.76805	50.9265
3.76531	50.8122
3.76258	50.6629
3.75985	50.5487
3.75713	50.4088
3.7544	50.2443
3.75169	50.1349
3.74898	49.9957
3.74627	49.8773
3.74356	49.8033
3.74086	49.6846
3.73816	49.597
3.73547	49.5942
3.73278	49.5115
3.7301	49.422
3.72741	49.4996
3.72474	49.5383
3.72206	49.5025
3.71939	49.4824
3.71673	49.4555
3.71406	49.4232
3.71141	49.4462
3.70875	49.4501
3.7061	49.4125
3.70345	49.39
3.70081	49.4009
3.69817	49.477
3.69553	49.5771
3.6929	49.6227
3.69027	49.5583
3.68765	49.4781
3.68503	49.4714
3.68241	49.461
3.6798	49.4209
3.67719	49.3477
3.67458	49.3358
3.67198	49.3321
3.66938	49.2818
3.66678	49.228
3.66419	49.1414
3.66161	49.0996
3.65902	48.9946
3.65644	48.925
3.65387	48.8805
3.65129	48.7958
3.64872	48.7046
3.64616	48.5389
3.64359	48.3849
3.64103	48.2824
3.63848	48.1991
3.63593	48.0933
3.63338	47.9487
3.63084	47.8584
3.6283	47.7361
3.62576	47.5975
3.62322	47.4451
3.62069	47.3048
3.61817	47.1719
3.61564	47.0234
3.61312	46.8736
3.61061	46.6616
3.6081	46.5051
3.60559	46.3561
3.60308	46.2294
3.60058	46.0764
3.59808	45.9417
3.59558	45.8552
3.59309	45.7543
3.59061	45.5915
3.58812	45.4982
3.58564	45.3591
3.58316	45.1901
3.58069	45.0262
3.57822	44.8565
3.57575	44.7345
3.57328	44.5937
3.57082	44.4801
3.56836	44.3186
3.56591	44.1375
3.56346	43.9713
3.56101	43.8508
3.55857	43.7221
3.55613	43.4942
3.55369	43.2832
3.55126	43.1401
3.54883	43.0856
3.5464	43.0089
3.54397	42.7948
3.54155	42.5739
3.53914	42.4087
3.53672	42.2333
3.53431	42.037
3.5319	41.8799
3.5295	41.5964
3.5271	41.2763
3.5247	41.0609
3.52231	40.8111
3.51991	40.5667
3.51753	40.3048
3.51514	40.0162
3.51276	39.5912
3.51038	39.2213
3.50801	38.9573
3.50563	38.6724
3.50327	38.461
3.5009	38.3657
3.49854	38.2859
3.49618	38.2002
3.49382	38.0963
3.49147	37.9718
3.48912	37.7828
3.48677	37.599
3.48443	37.3999
3.48209	37.3104
3.47975	37.1818
3.47742	37.0301
3.47509	36.8707
3.47276	36.7314
3.47044	36.567
3.46812	36.3726
3.4658	36.2298
3.46348	36.0739
3.46117	35.8681
3.45886	35.6498
3.45656	35.4709
3.45425	35.2784
3.45195	35.0103
3.44966	34.7722
3.44736	34.4824
3.44507	34.2449
3.44279	34.0429
3.4405	33.7917
3.43822	33.537
3.43594	33.2652
3.43367	32.9204
3.43139	32.5799
3.42912	32.3687
3.42686	32.1738
3.42459	31.7573
3.42233	31.3766
3.42007	31.13
3.41782	30.8469
3.41557	30.7455
3.41332	30.7266
3.41108	30.6574
3.40883	30.5642
3.40659	30.4356
3.40435	30.3491
3.40212	30.3039
3.39989	30.2958
3.39766	30.1533
3.39544	29.9807
3.39322	29.8257
3.391	29.6292
3.38878	29.3531
3.38657	29.156
3.38436	28.9756
3.38215	28.8011
3.37994	28.6554
3.37774	28.5301
3.37554	28.4771
3.37335	28.4053
3.37115	28.2013
3.36896	28.1776
3.36678	28.0526
3.36459	27.9201
3.36241	27.7581
3.36023	27.5471
3.35805	27.4239
3.35588	27.3062
3.35371	27.1623
3.35154	27.0062
3.34938	26.8245
3.34721	26.6478
3.34505	26.5548
3.3429	26.3927
3.34074	26.074
3.33859	25.9437
3.33644	25.9689
3.3343	25.8914
3.33215	25.7137
3.33001	25.5159
3.32788	25.3422
3.32574	25.1233
3.32361	24.9769
3.32148	24.8429
3.31936	24.691
3.31723	24.5317
3.31511	24.4172
3.31299	24.2427
3.31088	24.0515
3.30876	23.8386
3.30665	23.6674
3.30455	23.4621
3.30244	23.3348
3.30034	23.2877
3.29824	23.0673
3.29614	22.8354
3.29405	22.7481
3.29196	22.5799
3.28987	22.383
3.28778	22.3063
3.2857	22.1303
3.28362	21.9548
3.28154	21.8581
3.27946	21.7113
3.27739	21.5206
3.27532	21.3009
3.27325	21.1021
3.27119	21.0069
3.26913	20.8895
3.26707	20.7115
3.26501	20.5111
3.26295	20.3856
3.2609	20.2055
3.25885	20.1373
3.2568	19.9715
3.25476	19.7093
3.25272	19.556
3.25068	19.5124
3.24864	19.441
3.24661	19.2415
3.24458	19.0478
3.24255	18.8571
3.24052	18.7422
3.2385	18.6031
3.23648	18.3996
3.23446	18.3483
3.23244	18.2682
3.23043	18.1207
3.22841	17.9576
3.2264	17.7903
3.2244	17.6568
3.22239	17.4959
3.22039	17.3088
3.21839	17.1058
3.2164	16.9518
3.2144	16.9254
3.21241	16.8834
3.21042	16.7319
3.20844	16.466
3.20645	16.2122
3.20447	16.067
3.20249	16.0524
3.20051	15.9788
3.19854	15.8921
3.19657	15.7443
3.1946	15.6212
3.19263	15.5349
3.19067	15.3614
3.1887	15.154
3.18674	15.0178
3.18479	14.9065
3.18283	14.7884
3.18088	14.6296
3.17893	14.5176
3.17698	14.4943
3.17504	14.4097
3.17309	14.2929
3.17115	14.1609
3.16921	14.063
3.16728	13.7827
3.16534	13.7
3.16341	13.8099
3.16148	13.7249
3.15956	13.5725
3.15763	13.4935
3.15571	13.3525
3.15379	13.1302
3.15187	13.0856
3.14996	13.0181
3.14805	12.7852
3.14614	12.6712
3.14423	12.5722
3.14232	12.3655
3.14042	12.2492
3.13852	12.1682
3.13662	12.1542
3.13472	12.1678
3.13283	12.0884
3.13094	11.8698
3.12905	11.7331
3.12716	11.7004
3.12528	11.6261
3.12339	11.4203
3.12151	11.4107
3.11964	11.4346
3.11776	11.2641
3.11589	11.1412
3.11401	11.0719
3.11214	11.0548
3.11028	11.0334
3.10841	10.9536
3.10655	10.8752
3.10469	10.7338
3.10283	10.5602
3.10098	10.4216
3.09912	10.3724
3.09727	10.5149
3.09542	10.6222
3.09358	10.4265
3.09173	10.2066
3.08989	9.97321
3.08805	9.80689
3.08621	9.77529
3.08437	9.78406
3.08254	9.81979
3.08071	9.81577
3.07888	9.82885
3.07705	9.72109
3.07523	9.54106
3.0734	9.39033
3.07158	9.32824
3.06977	9.44988
3.06795	9.45796
3.06613	9.24269
3.06432	9.17684
3.06251	9.16008
3.0607	9.03157
3.0589	8.90204
3.0571	8.87807
3.05529	8.9537
3.05349	8.93579
3.0517	8.84086
3.0499	8.8402
3.04811	8.79822
3.04632	8.55634
3.04453	8.48009
3.04274	8.49435
3.04096	8.38082
3.03918	8.33388
3.0374	8.3273
3.03562	8.18275
3.03384	8.15005
3.03207	8.15647
3.03029	8.26966
3.02852	8.11978
3.02676	8.03176
3.02499	8.19559
3.02323	8.20388
3.02146	7.96819
3.0197	7.94267
3.01795	7.87855
3.01619	7.77493
3.01444	7.78154
3.01269	7.70316
3.01094	7.65675
3.00919	7.5755
3.00744	7.58753
3.0057	7.65127
3.00396	7.60353
3.00222	7.47519
3.00048	7.37477
2.99875	7.30062
2.99701	7.1647
2.99528	7.03847
2.99355	7.11987
2.99183	7.24107
2.9901	7.29214
2.98838	7.23151
2.98666	7.14822
2.98494	6.96499
2.98322	6.87391
2.9815	6.95818
2.97979	7.00648
2.97808	6.98906
2.97637	6.96921
2.97466	6.96854
2.97295	6.87688
2.97125	6.78074
2.96955	6.66036
2.96785	6.52477
2.96615	6.54179
2.96446	6.6349
2.96276	6.65168
2.96107	6.60113
2.95938	6.5047
2.95769	6.43665
2.95601	6.31803
2.95432	6.28594
2.95264	6.46668
2.95096	6.63079
2.94928	6.54157
2.9476	6.36079
2.94593	6.30045
2.94425	6.25721
2.94258	6.14126
2.94092	6.2316
2.93925	6.30017
2.93758	6.39303
2.93592	6.3686
2.93426	6.2665
2.9326	6.13846
2.93094	6.02182
2.92928	6.05767
2.92763	6.12136
2.92598	6.12117
2.92433	6.10986
2.92268	6.19118
2.92103	6.07364
2.91939	5.89336
2.91775	5.9494
2.9161	5.90126
2.91447	5.85368
2.91283	5.93304
2.91119	5.92524
2.90956	6.02613
2.90793	6.00697
2.9063	5.83305
2.90467	5.8912
2.90304	5.98436
2.90142	6.0172
2.89979	6.09862
2.89817	6.04722
2.89656	6.02374
2.89494	6.08511
2.89332	6.10472
2.89171	6.18648
2.8901	6.20287
2.88849	6.17993
2.88688	6.13934
2.88527	6.25703
2.88367	6.29929
2.88206	6.32501
2.88046	6.47691
2.87886	6.48796
2.87727	6.42212
2.87567	6.52502
2.87408	6.50184
2.87248	6.46347
2.87089	6.54468
2.8693	6.67912
2.86772	6.79017
2.86613	6.8982
2.86455	6.95647
2.86297	6.96983
2.86139	7.02696
2.85981	7.19101
2.85823	7.23546
2.85666	7.1525
2.85508	7.28666
2.85351	7.54582
2.85194	7.71061
2.85038	7.71742
2.84881	7.75912
2.84724	7.8724
2.84568	7.92918
2.84412	7.97677
2.84256	7.97511
2.841	7.93944
2.83945	8.10932
2.83789	8.34729
2.83634	8.50561
2.83479	8.65294
2.83324	8.77605
2.83169	8.75516
2.83015	8.72579
2.82861	8.87998
2.82706	9.02768
2.82552	8.87063
2.82398	8.8209
2.82245	8.94396
2.82091	8.79228
2.81938	8.86048
2.81784	8.93631
2.81631	8.93411
2.81479	8.82016
2.81326	8.77727
2.81173	8.80017
2.81021	8.72807
2.80869	8.64195
2.80716	8.60608
2.80565	8.54843
2.80413	8.43578
2.80261	8.37014
2.8011	8.34502
2.79959	8.2794
2.79808	8.18215
2.79657	8.0968
2.79506	7.96224
2.79355	7.75556
2.79205	7.4714
2.79055	7.19799
2.78904	7.19625
2.78754	7.41038
2.78605	7.60212
2.78455	7.74234
2.78306	8.16619
2.78156	8.27797
2.78007	8.28896
2.77858	8.35093
2.77709	8.28224
2.77561	8.3873
2.77412	8.41648
2.77264	8.5149
2.77116	8.82469
2.76968	9.14788
2.7682	9.136
2.76672	9.11834
2.76524	9.3841
2.76377	9.53638
2.7623	9.33899
2.76083	8.87814
2.75936	8.32023
2.75789	8.17878
2.75642	8.78427
2.75496	9.5307
2.7535	9.9211
2.75203	10.5037
2.75057	11.1739
2.74912	11.6213
2.74766	11.8954
2.7462	11.9038
2.74475	11.5403
2.7433	11.8842
2.74185	13.4709
2.7404	14.9555
2.73895	15.8891
2.7375	16.6821
2.73606	17.8587
2.73462	18.9771
2.73318	19.5937
2.73174	20.3541
2.7303	21.2438
2.72886	22.1962
2.72742	23.3584
2.72599	24.7835
2.72456	26.1482
2.72313	27.2129
2.7217	28.6398
2.72027	30.1617
2.71884	30.9576
2.71742	32.1157
2.71599	33.4067
2.71457	34.6784
2.71315	36.0393
2.71173	37.6561
2.71032	38.997
2.7089	39.864
2.70748	40.7565
2.70607	41.8895
2.70466	43.0367
2.70325	44.0611
2.70184	44.9953
2.70043	45.842
2.69903	46.6127
2.69762	47.5403
2.69622	48.597
2.69482	49.6352
2.69342	50.3602
2.69202	50.6568
2.69062	51.0696
2.68923	51.7359
2.68783	52.5468
2.68644	53.4021
2.68505	54.0929
2.68366	54.6805
2.68227	55.127
2.68089	55.6282
2.6795	56.53
2.67812	57.2306
2.67673	57.9144
2.67535	58.0766
2.67397	58.1355
2.6726	58.7611
2.67122	60.0223
2.66984	60.3508
2.66847	60.1545
2.6671	61.1018
2.66572	61.7828
2.66435	61.8135
2.66299	61.57
2.66162	61.8469
2.66025	62.1703
2.65889	62.3138
2.65753	62.3437
2.65616	62.76
2.65481	63.0716
2.65345	63.3563
2.65209	63.6185
2.65073	63.5843
2.64938	63.5262
2.64803	63.6845
2.64667	64.0288
2.64532	64.2226
2.64397	64.1275
2.64263	64.3645
2.64128	64.6081
2.63994	64.6685
2.63859	64.7078
2.63725	64.8001
2.63591	64.8827
2.63457	65.2538
2.63323	65.4083
2.6319	65.7087
2.63056	66.2501
2.62923	65.8893
2.62789	65.8862
2.62656	66.3617
2.62523	66.0528
2.6239	65.8579
2.62258	66.0049
2.62125	66.7273
2.61993	66.9328
2.6186	66.6002
2.61728	66.9093
2.61596	66.8855
2.61464	66.6421
2.61332	66.597
2.61201	66.5078
2.61069	66.6564
2.60938	66.8087
2.60807	67.0399
2.60675	67.3614
2.60544	67.5858
2.60414	67.3591
2.60283	67.2065
2.60152	67.1148
2.60022	66.9861
2.59891	66.8314
2.59761	67.0202
2.59631	67.9531
2.59501	68.9156
2.59371	68.1472
2.59242	67.1993
2.59112	67.021
2.58983	67.1984
2.58853	67.4238
2.58724	67.4696
2.58595	67.2953
2.58466	67.6215
2.58338	67.7506
2.58209	67.421
2.5808	67.412
2.57952	67.2959
2.57824	67.457
2.57695	67.6771
2.57567	67.5597
2.5744	67.6373
2.57312	67.768
2.57184	67.4827
2.57057	67.6854
2.56929	67.8869
2.56802	67.6382
2.56675	67.5923
2.56548	67.8888
2.56421	68.1443
2.56294	68.2758
2.56168	68.3102
2.56041	68.0767
2.55915	67.8542
2.55789	67.8727
2.55662	67.8287
2.55536	67.8773
2.5541	67.9982
2.55285	68.1042
2.55159	68.1803
2.55034	68.1213
2.54908	68.0653
2.54783	68.1492
2.54658	68.1564
2.54533	68.2156
2.54408	68.3702
2.54283	68.4254
2.54159	68.2679
2.54034	68.3268
2.5391	68.4614
2.53785	68.5343
2.53661	68.5771
2.53537	68.6054
2.53413	68.6387
2.53289	68.7707
2.53166	68.8625
2.53042	68.8755
2.52919	68.8602
2.52795	68.826
2.52672	68.8568
2.52549	68.9257
2.52426	68.964
2.52303	68.9658
2.52181	68.9495
2.52058	68.8848
2.51936	69.0305
2.51813	69.2218
2.51691	69.3509
2.51569	69.3542
2.51447	69.2669
2.51325	69.3271
2.51203	69.4237
2.51082	69.5551
2.5096	69.707
2.50839	69.6078
2.50717	69.4952
2.50596	69.6563
2.50475	69.8631
2.50354	69.89
2.50233	69.8684
2.50113	69.9858
2.49992	70.106
2.49872	70.1561
2.49751	70.2723
2.49631	70.2684
2.49511	70.2339
2.49391	70.3251
2.49271	70.4623
2.49151	70.5849
2.49031	70.5525
2.48912	70.6297
2.48792	70.8106
2.48673	70.8473
2.48554	70.9137
2.48435	70.9914
2.48316	71.0044
2.48197	71.0972
2.48078	71.1647
2.4796	71.2135
2.47841	71.2358
2.47723	71.2778
2.47604	71.3737
2.47486	71.5733
2.47368	71.6817
2.4725	71.7536
2.47132	71.8733
2.47014	71.8799
2.46897	71.8615
2.46779	71.9354
2.46662	72.0878
2.46545	72.2728
2.46427	72.4361
2.4631	72.534
2.46193	72.5718
2.46077	72.8226
2.4596	73.0216
2.45843	73.1209
2.45727	73.141
2.4561	73.1684
2.45494	73.2874
2.45378	73.4006
2.45262	73.6163
2.45146	73.7302
2.4503	73.7698
2.44914	73.9048
2.44799	74.1237
2.44683	74.2431
2.44568	74.2058
2.44452	74.3366
2.44337	74.5197
2.44222	74.6802
2.44107	74.8145
2.43992	74.8544
2.43877	74.9381
2.43763	75.0703
2.43648	75.1826
2.43534	75.2875
2.43419	75.4481
2.43305	75.4672
2.43191	75.4546
2.43077	75.4676
2.42963	75.5219
2.42849	75.5474
2.42736	75.5524
2.42622	75.635
2.42509	75.7288
2.42395	75.738
2.42282	75.8576
2.42169	75.9754
2.42056	76.0538
2.41943	76.2006
2.4183	76.2918
2.41717	76.2503
2.41605	76.3018
2.41492	76.3171
2.4138	76.3876
2.41267	76.4098
2.41155	76.4452
2.41043	76.5502
2.40931	76.704
2.40819	76.7341
2.40707	76.6732
2.40595	76.7184
2.40484	76.9625
2.40372	77.2067
2.40261	77.341
2.4015	77.47
2.40039	77.539
2.39928	77.4605
2.39817	77.3548
2.39706	77.4613
2.39595	77.6612
2.39484	77.7748
2.39374	77.7339
2.39263	77.7085
2.39153	77.8138
2.39043	78.0623
2.38932	78.1418
2.38822	78.0189
2.38712	78.0516
2.38603	78.113
2.38493	78.1866
2.38383	78.1908
2.38274	78.2076
2.38164	78.2264
2.38055	78.1599
2.37946	78.163
2.37836	78.2508
2.37727	78.3772
2.37618	78.5055
2.3751	78.3963
2.37401	78.2817
2.37292	78.3315
2.37184	78.3821
2.37075	78.29
2.36967	78.313
2.36859	78.4263
2.3675	78.3168
2.36642	78.2753
2.36534	78.2758
2.36427	78.181
2.36319	78.1356
2.36211	78.2236
2.36104	78.2241
2.35996	78.2331
2.35889	78.1724
2.35781	78.1336
2.35674	78.1444
2.35567	78.1011
2.3546	78.0337
2.35353	77.9195
2.35247	77.9103
2.3514	78.0411
2.35033	77.9872
2.34927	77.8806
2.3482	77.7814
2.34714	77.6717
2.34608	77.7574
2.34502	77.8186
2.34396	77.675
2.3429	77.4548
2.34184	77.3345
2.34078	77.2773
2.33973	77.2169
2.33867	77.062
2.33762	77.0051
2.33656	76.9526
2.33551	76.7693
2.33446	76.6201
2.33341	76.5797
2.33236	76.4585
2.33131	76.1815
2.33026	76.0081
2.32922	75.8927
2.32817	75.8465
2.32712	75.7019
2.32608	75.3732
2.32504	75.2809
2.324	75.3779
2.32295	75.4388
2.32191	75.2404
2.32087	75.0892
2.31984	75.0596
2.3188	75.088
2.31776	75.1449
2.31673	75.1676
2.31569	75.1062
2.31466	74.9548
2.31362	74.8614
2.31259	74.84
2.31156	74.6843
2.31053	74.6332
2.3095	74.7821
2.30847	74.8021
2.30745	74.7286
2.30642	74.566
2.3054	74.6495
2.30437	74.7914
2.30335	74.8358
2.30232	74.8598
2.3013	74.8705
2.30028	74.9313
2.29926	74.9517
2.29824	74.9859
2.29722	75.0362
2.29621	75.065
2.29519	75.0534
2.29417	75.018
2.29316	75.0576
2.29215	75.2186
2.29113	75.3099
2.29012	75.383
2.28911	75.467
2.2881	75.4896
2.28709	75.4177
2.28608	75.3287
2.28507	75.4304
2.28407	75.4429
2.28306	75.4118
2.28206	75.583
2.28105	75.5421
2.28005	75.5261
2.27905	75.6289
2.27805	75.5533
2.27705	75.5047
2.27605	75.5145
2.27505	75.5282
2.27405	75.6224
2.27305	75.6474
2.27206	75.6182
2.27106	75.5836
2.27007	75.5359
2.26907	75.5381
2.26808	75.5572
2.26709	75.4827
2.2661	75.4665
2.26511	75.3819
2.26412	75.3599
2.26313	75.3961
2.26214	75.3911
2.26116	75.3424
2.26017	75.3552
2.25919	75.4619
2.2582	75.445
2.25722	75.4024
2.25624	75.3317
2.25526	75.2988
2.25428	75.2122
2.2533	75.2068
2.25232	75.2098
2.25134	75.1094
2.25036	75.1848
2.24939	75.3458
2.24841	75.3501
2.24744	75.4064
2.24646	75.3916
2.24549	75.3159
2.24452	75.3682
2.24355	75.3723
2.24257	75.3634
2.24161	75.4435
2.24064	75.3697
2.23967	75.3688
2.2387	75.5416
2.23774	75.646
2.23677	75.5274
2.23581	75.5191
2.23484	75.6322
2.23388	75.5623
2.23292	75.5467
2.23196	75.527
2.231	75.4807
2.23004	75.6252
2.22908	75.805
2.22812	75.7871
2.22716	75.6746
2.22621	75.5369
2.22525	75.3951
2.2243	75.4768
2.22334	75.5541
2.22239	75.4552
2.22144	75.3864
2.22049	75.3631
2.21953	75.3745
2.21859	75.3799
2.21764	75.3747
2.21669	75.5317
2.21574	75.7043
2.21479	75.7306
2.21385	75.508
2.2129	75.4401
2.21196	75.4772
2.21102	75.6097
2.21007	75.6741
2.20913	75.6591
2.20819	75.6017
2.20725	75.612
2.20631	75.8196
2.20537	76.069
2.20444	76.2459
2.2035	76.4991
2.20256	76.6601
2.20163	76.6356
2.20069	76.6109
2.19976	76.6417
2.19883	76.8793
2.19789	77.061
2.19696	77.2773
2.19603	77.5051
2.1951	77.615
2.19417	77.7562
2.19325	77.8974
2.19232	77.9745
2.19139	77.9553
2.19047	78.0375
2.18954	78.1613
2.18862	78.3023
2.18769	78.5037
2.18677	78.676
2.18585	78.8103
2.18493	78.9976
2.18401	79.1086
2.18309	79.1835
2.18217	79.3564
2.18125	79.5168
2.18033	79.5864
2.17942	79.683
2.1785	79.8878
2.17759	79.9067
2.17667	80.0629
2.17576	80.3249
2.17485	80.4394
2.17393	80.2765
2.17302	80.3053
2.17211	80.5272
2.1712	80.5579
2.17029	80.6193
2.16939	80.8179
2.16848	81.0229
2.16757	80.9795
2.16667	81.0438
2.16576	81.0179
2.16486	80.9229
2.16395	81.1439
2.16305	81.2622
2.16215	81.3983
2.16125	81.5106
2.16035	81.4559
2.15945	81.4512
2.15855	81.47
2.15765	81.4735
2.15675	81.5392
2.15586	81.6234
2.15496	81.5994
2.15406	81.7755
2.15317	81.9799
2.15228	81.983
2.15138	81.9317
2.15049	81.9977
2.1496	81.9711
2.14871	82.0197
2.14782	82.0116
2.14693	82.1321
2.14604	82.1993
2.14515	82.2574
2.14427	82.2988
2.14338	82.2818
2.14249	82.2754
2.14161	82.4157
2.14072	82.4684
2.13984	82.4528
2.13896	82.429
2.13808	82.4141
2.13719	82.4782
2.13631	82.5307
2.13543	82.5306
2.13455	82.5181
2.13368	82.5999
2.1328	82.5861
2.13192	82.4947
2.13105	82.5432
2.13017	82.6675
2.1293	82.7451
2.12842	82.8031
2.12755	82.7298
2.12668	82.6342
2.1258	82.5493
2.12493	82.5022
2.12406	82.5661
2.12319	82.7479
2.12232	82.8372
2.12145	82.8181
2.12059	82.6963
2.11972	82.713
2.11885	82.7734
2.11799	82.9016
2.11712	82.801
2.11626	82.8222
2.1154	82.8146
2.11453	82.8023
2.11367	82.7395
2.11281	82.6289
2.11195	82.8893
2.11109	83.0784
2.11023	83.1169
2.10937	83.1511
2.10851	83.0033
2.10766	82.8377
2.1068	82.8668
2.10594	83.0275
2.10509	82.87
2.10423	82.942
2.10338	83.0217
2.10253	82.8483
2.10168	82.7004
2.10082	82.6597
2.09997	82.7591
2.09912	82.9017
2.09827	82.9037
2.09742	82.7575
2.09658	82.746
2.09573	82.9011
2.09488	82.9129
2.09404	82.8279
2.09319	82.8054
2.09235	82.9644
2.0915	83.0982
2.09066	82.8695
2.08982	82.7755
2.08897	82.8817
2.08813	82.7623
2.08729	82.8075
2.08645	82.8969
2.08561	83.0108
2.08477	83.0031
2.08394	82.9574
2.0831	82.85
2.08226	82.6743
2.08143	82.7996
2.08059	83.0191
2.07976	82.9392
2.07892	82.5661
2.07809	82.676
2.07726	82.7311
2.07643	82.7774
2.07559	83.2156
2.07476	83.0461
2.07393	82.8173
2.0731	82.9459
2.07228	82.9588
2.07145	82.916
2.07062	83.0545
2.06979	83.0092
2.06897	82.9884
2.06814	83.0702
2.06732	82.8939
2.06649	82.6216
2.06567	82.6417
2.06485	82.7803
2.06403	82.9017
2.0632	82.8211
2.06238	82.9021
2.06156	82.8572
2.06074	82.8693
2.05993	82.9278
2.05911	82.9771
2.05829	82.9668
2.05747	82.8616
2.05666	82.7268
2.05584	82.7472
2.05503	82.7225
2.05421	82.6758
2.0534	82.7585
2.05259	82.7811
2.05177	82.7626
2.05096	82.7047
2.05015	82.7108
2.04934	82.7979
2.04853	82.8018
2.04772	82.945
2.04691	82.9469
2.04611	82.6316
2.0453	82.5371
2.04449	82.7413
2.04369	82.9014
2.04288	83.0541
2.04208	82.8959
2.04127	82.6315
2.04047	82.7143
2.03967	82.8867
2.03886	82.7022
2.03806	82.633
2.03726	82.7549
2.03646	82.7075
2.03566	82.5992
2.03486	82.4818
2.03407	82.499
2.03327	82.6014
2.03247	82.8072
2.03167	82.7151
2.03088	82.526
2.03008	82.4556
2.02929	82.4917
2.0285	82.5058
2.0277	82.3908
2.02691	82.313
2.02612	82.542
2.02533	82.6805
2.02453	82.5154
2.02374	82.4128
2.02295	82.3382
2.02217	82.1752
2.02138	82.2509
2.02059	82.405
2.0198	82.3243
2.01902	82.2204
2.01823	82.1791
2.01744	82.2819
2.01666	82.3806
2.01588	82.2798
2.01509	82.0817
2.01431	82.0746
2.01353	82.2432
2.01275	82.3203
2.01196	82.2596
2.01118	82.2245
2.0104	82.1543
2.00963	82.0087
2.00885	81.7998
2.00807	81.7692
2.00729	81.7028
2.00651	81.7381
2.00574	81.8786
2.00496	81.9108
2.00419	81.9373
2.00341	81.7595
2.00264	81.6497
2.00187	81.6124
2.00109	81.7159
2.00032	81.6848
