Name: Basalt
Type: Rock
Class: Igneous
Subclass:  Mafic 
Particle Size: Solid surface
Sample No.: Ward35.txt
Owner: JPL
Wavelength range:  IR  
Origin: Ward's Collection of American Rocks.  Sample locality - Chimney Rock, Somerset County, New Jersey.
Collected by:  Ward's Natural Science
Description: A greenish-black rock with aphanitic texture, and occasional
red bands due to iron oxide stain.
Geologic Age - Upper Triassic.



Measurement: Hemispherical reflectance
First Column: X
Second Column: Y
X Units: Wavelength (micrometers)
Y Units: Reflectance (percent)
First X Value: 15.3871
Last X Value: 1.9998
Number of X Values: 2257
Additional information: None

15.3871   2.81595
15.3416   3.16031
15.2964   3.11190
15.2514   2.76264
15.2066   2.56918
15.1622   3.22930
15.1180   3.12878
15.0740   2.28037
15.0303   2.08354
14.9869   3.20585
14.9437   3.75605
14.9008   3.28002
14.8581   3.30142
14.8156   3.54103
14.7734   3.20215
14.7314   2.87757
14.6897   2.44722
14.6482   3.03175
14.6069   3.87902
14.5659   3.22009
14.5251   2.54341
14.4845   2.44100
14.4442   2.73564
14.4041   2.57868
14.3642   2.67869
14.3245   2.79412
14.2850   2.72403
14.2458   2.67544
14.2068   3.08530
14.1679   3.09927
14.1293   2.84517
14.0909   3.15693
14.0528   3.00933
14.0148   2.83062
13.9770   2.64963
13.9394   2.64459
13.9021   3.03379
13.8649   3.15538
13.8279   3.14910
13.7911   3.00396
13.7546   2.87456
13.7182   2.97397
13.6820   3.06150
13.6460   3.12246
13.6101   3.35685
13.5745   3.36239
13.5391   3.29537
13.5038   3.19286
13.4687   3.13668
13.4339   3.07041
13.3991   2.91853
13.3646   3.04007
13.3302   3.22723
13.2961   3.42289
13.2621   3.36721
13.2282   2.91375
13.1946   2.79948
13.1611   3.08077
13.1278   3.40571
13.0946   3.48454
13.0616   3.16222
13.0288   3.22030
12.9962   3.32272
12.9637   3.51998
12.9313   3.45537
12.8992   3.23442
12.8672   3.26753
12.8353   3.21553
12.8036   3.54354
12.7721   4.08885
12.7407   4.08162
12.7095   3.83541
12.6784   3.90646
12.6475   4.06248
12.6167   3.78354
12.5861   3.58688
12.5556   3.27462
12.5253   3.56594
12.4951   4.07415
12.4651   4.25936
12.4352   4.00671
12.4054   3.66252
12.3758   3.91810
12.3463   4.25292
12.3170   3.44265
12.2878   3.36521
12.2588   3.78771
12.2299   3.73335
12.2011   3.70302
12.1725   4.06391
12.1439   4.42874
12.1156   4.46380
12.0873   4.38741
12.0592   4.39693
12.0312   4.51978
12.0034   4.78106
11.9757   5.02103
11.9481   4.84667
11.9206   4.65493
11.8933   4.72140
11.8661   5.02762
11.8390   5.07794
11.8120   4.74951
11.7852   4.82580
11.7584   4.96302
11.7318   5.03070
11.7053   5.36012
11.6790   5.50297
11.6527   5.59910
11.6266   5.66692
11.6006   5.64783
11.5747   5.70075
11.5489   6.12660
11.5233   6.38167
11.4977   6.08673
11.4723   5.99960
11.4469   6.36277
11.4217   6.60611
11.3966   6.51719
11.3716   6.47172
11.3468   6.58116
11.3220   6.69781
11.2973   6.63520
11.2728   6.49925
11.2483   6.70926
11.2240   6.73483
11.1997   6.50550
11.1756   6.09151
11.1515   5.95554
11.1276   6.54384
11.1038   6.88917
11.0801   6.69251
11.0564   6.73148
11.0329   6.94104
11.0095   6.98747
10.9862   7.11669
10.9629   7.36246
10.9398   7.59201
10.9168   7.40547
10.8938   7.03072
10.8710   7.21902
10.8483   7.76340
10.8256   8.01226
10.8031   7.99104
10.7806   7.89680
10.7582   7.78769
10.7360   7.72210
10.7138   7.96779
10.6917   7.94219
10.6697   7.72279
10.6478   7.62157
10.6260   7.84141
10.6042   8.11739
10.5826   8.53655
10.5610   8.74432
10.5396   8.72957
10.5182   8.50095
10.4969   8.39846
10.4757   8.60337
10.4546   8.77971
10.4335   8.58902
10.4126   8.72994
10.3917   8.94797
10.3709   8.93391
10.3502   9.20197
10.3296   9.35515
10.3091   9.37957
10.2886   9.40543
10.2683   9.77146
10.2480   9.99063
10.2277  10.02810
10.2076  10.06000
10.1876  10.29800
10.1676  10.60640
10.1477  10.74910
10.1279  10.80810
10.1081  10.94870
10.0885  11.34790
10.0689  11.49920
10.0494  11.85000
10.0299  12.28050
10.0106  12.30240
 9.9913  12.25530
 9.9720  12.64210
 9.9529  12.98770
 9.9338  13.11320
 9.9148  13.37150
 9.8959  13.70530
 9.8771  13.99750
 9.8583  14.46830
 9.8396  14.62650
 9.8210  14.49490
 9.8024  14.54420
 9.7839  14.79090
 9.7655  14.87660
 9.7471  14.97010
 9.7288  15.20810
 9.7106  15.22460
 9.6925  15.17500
 9.6744  15.18300
 9.6564  15.22230
 9.6384  15.34550
 9.6205  15.01870
 9.6027  14.72220
 9.5850  14.56740
 9.5673  14.45060
 9.5497  14.24530
 9.5321  13.80300
 9.5146  13.37480
 9.4972  13.44910
 9.4798  13.49610
 9.4625  13.07680
 9.4453  12.56380
 9.4281  12.27060
 9.4110  11.93290
 9.3940  11.63950
 9.3770  11.58730
 9.3600  11.46770
 9.3432  11.12750
 9.3264  10.71970
 9.3096  10.27670
 9.2930   9.91301
 9.2763   9.62107
 9.2598   9.50286
 9.2432   9.38509
 9.2268   9.12929
 9.2104   8.80577
 9.1941   8.42236
 9.1778   8.20882
 9.1616   8.15718
 9.1454   7.95794
 9.1293   7.69750
 9.1133   7.32263
 9.0973   6.76794
 9.0814   6.70292
 9.0655   6.67671
 9.0497   6.40076
 9.0339   6.31185
 9.0182   6.13826
 9.0025   5.81329
 8.9870   6.03987
 8.9714   6.20219
 8.9559   5.73567
 8.9405   5.58543
 8.9251   5.75838
 8.9097   5.44523
 8.8945   5.04097
 8.8792   4.96223
 8.8641   4.28070
 8.8489   3.87138
 8.8338   4.28982
 8.8188   4.35661
 8.8039   3.89546
 8.7889   3.61775
 8.7741   3.52799
 8.7592   3.50411
 8.7445   3.63825
 8.7297   3.73950
 8.7151   3.73585
 8.7005   3.83690
 8.6859   3.55002
 8.6714   3.59289
 8.6569   3.40926
 8.6425   3.07643
 8.6281   2.95465
 8.6137   2.99490
 8.5994   3.12661
 8.5852   3.19152
 8.5710   3.12733
 8.5569   3.10520
 8.5428   3.10632
 8.5287   3.18658
 8.5147   3.50823
 8.5008   3.48824
 8.4869   3.05518
 8.4730   3.10176
 8.4592   3.63384
 8.4454   3.50741
 8.4316   3.26647
 8.4180   2.95921
 8.4043   2.81456
 8.3907   3.04077
 8.3772   2.95847
 8.3637   2.67590
 8.3502   2.79421
 8.3368   2.71670
 8.3234   2.64652
 8.3100   2.64337
 8.2967   2.64311
 8.2835   2.56005
 8.2703   2.57161
 8.2571   2.80631
 8.2440   2.97340
 8.2309   2.92956
 8.2179   2.63342
 8.2049   2.28594
 8.1919   2.39740
 8.1790   2.37511
 8.1661   2.23114
 8.1532   2.29717
 8.1404   2.13149
 8.1277   1.85498
 8.1150   1.87051
 8.1023   1.94647
 8.0897   1.97009
 8.0770   2.03499
 8.0645   2.11267
 8.0520   1.85026
 8.0395   1.75036
 8.0270   1.76494
 8.0146   1.65565
 8.0023   1.81360
 7.9899   2.00540
 7.9776   2.07607
 7.9654   2.08874
 7.9532   1.88786
 7.9410   1.73779
 7.9288   1.90191
 7.9167   1.89418
 7.9047   1.66192
 7.8926   1.77717
 7.8807   1.99917
 7.8687   1.93070
 7.8568   1.83519
 7.8449   1.93176
 7.8330   1.82443
 7.8212   1.68017
 7.8094   2.00509
 7.7977   2.03787
 7.7860   1.89827
 7.7743   1.95496
 7.7627   1.92464
 7.7511   1.86849
 7.7395   1.85307
 7.7280   2.08258
 7.7165   2.11865
 7.7050   2.13697
 7.6936   2.15515
 7.6822   2.10623
 7.6708   1.82558
 7.6595   1.74961
 7.6482   1.93011
 7.6369   1.93264
 7.6257   1.88848
 7.6145   1.93415
 7.6033   2.00428
 7.5922   2.16682
 7.5811   2.29158
 7.5700   2.28633
 7.5590   2.21336
 7.5480   2.09117
 7.5370   2.15729
 7.5261   2.06060
 7.5152   1.97757
 7.5043   2.04927
 7.4935   2.04704
 7.4826   2.17174
 7.4718   2.40373
 7.4611   2.34298
 7.4504   2.21980
 7.4397   2.14741
 7.4290   2.21231
 7.4184   2.27445
 7.4078   2.07688
 7.3972   2.22269
 7.3867   2.41385
 7.3762   2.27908
 7.3657   2.07178
 7.3553   2.14986
 7.3449   2.38768
 7.3345   2.34793
 7.3241   2.38951
 7.3138   2.64090
 7.3035   2.54170
 7.2932   2.40634
 7.2830   2.35152
 7.2727   2.42773
 7.2626   2.45094
 7.2524   2.46946
 7.2423   2.37845
 7.2322   2.29854
 7.2221   2.34410
 7.2120   2.38596
 7.2020   2.54296
 7.1921   2.47890
 7.1821   2.44636
 7.1722   2.68524
 7.1623   2.69288
 7.1524   2.47886
 7.1425   2.42539
 7.1327   2.60943
 7.1229   2.62503
 7.1131   2.60547
 7.1034   2.60317
 7.0937   2.54269
 7.0840   2.57104
 7.0743   2.71610
 7.0647   2.85092
 7.0551   2.73140
 7.0455   2.75532
 7.0359   2.82771
 7.0264   2.78235
 7.0169   2.74504
 7.0074   2.62887
 6.9979   2.51708
 6.9885   2.74175
 6.9791   2.93839
 6.9697   2.93164
 6.9604   2.78225
 6.9510   2.56067
 6.9417   2.57347
 6.9324   2.62600
 6.9232   2.88973
 6.9140   2.85377
 6.9047   2.66292
 6.8956   2.85471
 6.8864   3.09310
 6.8773   3.08292
 6.8682   3.11871
 6.8591   3.14986
 6.8500   2.87897
 6.8410   2.71521
 6.8320   2.75252
 6.8230   2.89273
 6.8140   2.81702
 6.8051   2.64127
 6.7962   2.86558
 6.7873   3.06082
 6.7784   2.94539
 6.7695   3.06983
 6.7607   3.01185
 6.7519   2.87414
 6.7431   2.73993
 6.7344   2.73264
 6.7256   2.88286
 6.7169   2.93805
 6.7082   2.91719
 6.6996   2.99023
 6.6909   2.99970
 6.6823   3.13461
 6.6737   3.34442
 6.6651   3.31878
 6.6566   2.94952
 6.6480   2.87861
 6.6395   2.92985
 6.6310   2.93555
 6.6226   3.02339
 6.6141   3.14793
 6.6057   3.32647
 6.5973   3.13969
 6.5889   2.81782
 6.5805   2.83937
 6.5722   2.73733
 6.5639   2.72620
 6.5556   2.93563
 6.5473   2.93879
 6.5390   2.96557
 6.5308   2.96171
 6.5226   2.82135
 6.5144   3.03729
 6.5062   3.17382
 6.4981   2.95495
 6.4900   2.98362
 6.4818   3.00335
 6.4737   2.70247
 6.4657   2.79620
 6.4576   2.93645
 6.4496   2.88405
 6.4416   2.82972
 6.4336   2.83731
 6.4256   2.79506
 6.4177   2.86338
 6.4097   2.80288
 6.4018   2.75106
 6.3939   2.74943
 6.3860   2.57711
 6.3782   2.35859
 6.3704   2.24966
 6.3625   2.42728
 6.3547   2.45889
 6.3470   2.63438
 6.3392   2.68402
 6.3315   2.67175
 6.3237   2.72476
 6.3160   2.71740
 6.3083   2.64193
 6.3007   2.54882
 6.2930   2.50332
 6.2854   2.51767
 6.2778   2.45302
 6.2702   2.51985
 6.2626   2.62737
 6.2551   2.46370
 6.2476   2.33203
 6.2400   2.37811
 6.2325   2.42920
 6.2251   2.45826
 6.2176   2.43267
 6.2101   2.36623
 6.2027   2.37893
 6.1953   2.55119
 6.1879   2.62573
 6.1805   2.53612
 6.1732   2.48733
 6.1658   2.54593
 6.1585   2.40620
 6.1512   2.24689
 6.1439   2.16410
 6.1367   2.37151
 6.1294   2.42521
 6.1222   2.31927
 6.1149   2.40732
 6.1077   2.22679
 6.1006   2.04652
 6.0934   1.95535
 6.0862   2.30258
 6.0791   2.69102
 6.0720   2.45286
 6.0649   2.25214
 6.0578   2.30943
 6.0507   2.34498
 6.0437   2.47195
 6.0366   2.48414
 6.0296   2.35952
 6.0226   2.31008
 6.0156   2.09297
 6.0087   1.93055
 6.0017   2.07215
 5.9948   2.26975
 5.9878   2.11622
 5.9809   2.08011
 5.9740   2.24041
 5.9672   2.18396
 5.9603   2.22653
 5.9535   2.29805
 5.9466   2.37956
 5.9398   2.44256
 5.9330   2.40147
 5.9262   2.49449
 5.9195   2.48888
 5.9127   2.40984
 5.9060   2.21502
 5.8993   2.06550
 5.8926   2.03789
 5.8859   2.43049
 5.8792   2.72841
 5.8726   2.52485
 5.8659   2.35588
 5.8593   2.43492
 5.8527   2.47212
 5.8461   2.43047
 5.8395   2.37357
 5.8329   2.43353
 5.8264   2.31249
 5.8198   2.34716
 5.8133   2.65437
 5.8068   2.83765
 5.8003   2.79214
 5.7938   2.61212
 5.7874   2.52697
 5.7809   2.56670
 5.7745   2.56342
 5.7680   2.60908
 5.7616   2.56115
 5.7552   2.64082
 5.7489   2.84011
 5.7425   2.70736
 5.7361   2.55041
 5.7298   2.38714
 5.7235   2.57834
 5.7172   2.74701
 5.7109   2.90361
 5.7046   2.89088
 5.6983   2.73728
 5.6921   2.60669
 5.6858   2.69598
 5.6796   2.69637
 5.6734   2.78165
 5.6672   3.07361
 5.6610   3.15407
 5.6548   2.92763
 5.6487   2.60693
 5.6425   2.79632
 5.6364   2.81955
 5.6303   2.75913
 5.6242   2.83464
 5.6181   2.90183
 5.6120   3.01574
 5.6059   3.03049
 5.5999   2.88255
 5.5938   2.61723
 5.5878   2.50824
 5.5818   2.44597
 5.5758   2.64827
 5.5698   2.96402
 5.5638   3.15714
 5.5578   3.05078
 5.5519   2.95565
 5.5460   3.06756
 5.5400   2.90308
 5.5341   2.80971
 5.5282   3.11552
 5.5223   3.20877
 5.5164   2.98978
 5.5106   2.89550
 5.5047   2.89815
 5.4989   2.92551
 5.4931   3.00006
 5.4873   3.12762
 5.4815   3.27293
 5.4757   3.18378
 5.4699   3.07581
 5.4641   3.13902
 5.4584   3.13463
 5.4527   3.03514
 5.4469   3.03699
 5.4412   3.01073
 5.4355   3.14883
 5.4298   3.29485
 5.4241   3.23274
 5.4185   3.05546
 5.4128   3.01578
 5.4072   2.94917
 5.4015   2.85815
 5.3959   2.93279
 5.3903   3.10609
 5.3847   3.25777
 5.3791   3.30656
 5.3735   3.27402
 5.3680   3.21117
 5.3624   3.24038
 5.3569   3.18197
 5.3514   3.12475
 5.3458   3.14157
 5.3403   3.38074
 5.3348   3.41543
 5.3294   3.30548
 5.3239   3.38455
 5.3184   3.48750
 5.3130   3.38290
 5.3075   3.28041
 5.3021   3.15466
 5.2967   3.05989
 5.2913   3.22572
 5.2859   3.35875
 5.2805   3.31027
 5.2751   3.17388
 5.2698   3.07336
 5.2644   3.18953
 5.2591   3.31653
 5.2538   3.25988
 5.2485   3.23494
 5.2431   3.30944
 5.2378   3.24682
 5.2326   3.24182
 5.2273   3.35824
 5.2220   3.44880
 5.2168   3.54067
 5.2115   3.56323
 5.2063   3.48841
 5.2011   3.43139
 5.1959   3.19865
 5.1907   3.05364
 5.1855   3.10024
 5.1803   3.10038
 5.1751   3.27254
 5.1700   3.55296
 5.1648   3.54966
 5.1597   3.33010
 5.1545   3.38233
 5.1494   3.54633
 5.1443   3.54499
 5.1392   3.36795
 5.1341   3.11360
 5.1291   3.25874
 5.1240   3.43441
 5.1189   3.40346
 5.1139   3.25334
 5.1088   3.27486
 5.1038   3.56799
 5.0988   3.74261
 5.0938   3.67301
 5.0888   3.46188
 5.0838   3.31951
 5.0788   3.52149
 5.0738   3.54553
 5.0689   3.29674
 5.0639   3.31609
 5.0590   3.35687
 5.0541   3.45881
 5.0491   3.50808
 5.0442   3.52373
 5.0393   3.56495
 5.0344   3.58562
 5.0296   3.62899
 5.0247   3.65101
 5.0198   3.57175
 5.0150   3.70580
 5.0101   3.76288
 5.0053   3.57272
 5.0004   3.36835
 4.9956   3.36966
 4.9908   3.60859
 4.9860   3.69323
 4.9812   3.56457
 4.9765   3.51622
 4.9717   3.38002
 4.9669   3.23376
 4.9622   3.37528
 4.9574   3.56876
 4.9527   3.46669
 4.9480   3.35919
 4.9432   3.57889
 4.9385   3.65192
 4.9338   3.52619
 4.9291   3.54066
 4.9245   3.78631
 4.9198   3.79275
 4.9151   3.61183
 4.9105   3.52615
 4.9058   3.50412
 4.9012   3.51626
 4.8966   3.48930
 4.8919   3.56365
 4.8873   3.67098
 4.8827   3.58936
 4.8781   3.71424
 4.8736   3.91814
 4.8690   3.72127
 4.8644   3.49304
 4.8599   3.37418
 4.8553   3.44634
 4.8508   3.68291
 4.8462   3.74023
 4.8417   3.72678
 4.8372   3.83350
 4.8327   3.71706
 4.8282   3.64053
 4.8237   3.66774
 4.8192   3.61266
 4.8147   3.74778
 4.8103   3.74058
 4.8058   3.79937
 4.8014   3.79307
 4.7969   3.57530
 4.7925   3.61485
 4.7881   3.72224
 4.7836   3.75322
 4.7792   3.74463
 4.7748   3.61299
 4.7704   3.54536
 4.7660   3.62918
 4.7617   3.71473
 4.7573   3.59451
 4.7530   3.46576
 4.7486   3.66129
 4.7443   3.74571
 4.7399   3.58421
 4.7356   3.54729
 4.7313   3.57361
 4.7270   3.85988
 4.7226   3.98849
 4.7184   3.90900
 4.7141   3.90766
 4.7098   3.99720
 4.7055   4.04081
 4.7012   3.94241
 4.6970   3.70377
 4.6927   3.55183
 4.6885   3.68318
 4.6842   3.79816
 4.6800   3.80192
 4.6758   3.75460
 4.6716   3.83289
 4.6674   3.82780
 4.6632   3.82151
 4.6590   3.94754
 4.6548   3.94118
 4.6506   3.96414
 4.6465   4.04794
 4.6423   4.17114
 4.6382   4.26852
 4.6340   4.21388
 4.6299   3.97121
 4.6258   3.79995
 4.6216   3.67789
 4.6175   3.65825
 4.6134   3.88422
 4.6093   4.00547
 4.6052   3.91754
 4.6011   3.98835
 4.5971   4.12821
 4.5930   4.17651
 4.5889   4.16371
 4.5849   4.07563
 4.5808   4.01838
 4.5768   4.00705
 4.5727   3.83492
 4.5687   3.86185
 4.5647   4.03253
 4.5607   4.12495
 4.5567   4.06071
 4.5526   3.85483
 4.5487   3.89229
 4.5447   4.07031
 4.5407   3.99152
 4.5367   4.06862
 4.5328   4.26155
 4.5288   4.16111
 4.5248   4.21375
 4.5209   3.93898
 4.5170   3.67044
 4.5130   3.66797
 4.5091   3.85132
 4.5052   4.11284
 4.5013   4.27879
 4.4974   4.09517
 4.4935   3.93184
 4.4896   4.12809
 4.4857   4.35830
 4.4818   4.16298
 4.4779   3.93240
 4.4741   4.10741
 4.4702   4.19303
 4.4664   4.18298
 4.4625   4.10004
 4.4587   4.26370
 4.4549   4.37912
 4.4510   4.08966
 4.4472   3.95436
 4.4434   3.97297
 4.4396   3.98436
 4.4358   4.17222
 4.4320   4.29666
 4.4282   4.33077
 4.4245   4.44918
 4.4207   4.38995
 4.4169   4.12040
 4.4132   4.16900
 4.4094   4.29755
 4.4057   4.24057
 4.4019   4.25168
 4.3982   4.14137
 4.3945   4.06120
 4.3907   4.04710
 4.3870   4.17995
 4.3833   4.38683
 4.3796   4.21477
 4.3759   4.04053
 4.3722   4.00531
 4.3685   4.28009
 4.3649   4.46114
 4.3612   4.24308
 4.3575   3.99633
 4.3539   3.97574
 4.3502   4.08869
 4.3466   4.14157
 4.3429   4.33529
 4.3393   4.52854
 4.3357   4.65984
 4.3320   4.46902
 4.3284   4.23834
 4.3248   4.15371
 4.3212   4.25499
 4.3176   4.32651
 4.3140   4.23238
 4.3105   3.93780
 4.3069   4.05983
 4.3033   4.16566
 4.2997   4.10144
 4.2962   4.28446
 4.2926   4.43250
 4.2890   4.38617
 4.2855   4.16105
 4.2820   4.14024
 4.2784   4.09723
 4.2749   4.15746
 4.2714   4.24769
 4.2679   4.32925
 4.2644   4.18165
 4.2609   4.26972
 4.2574   4.34160
 4.2539   4.24587
 4.2504   4.20502
 4.2469   4.36937
 4.2434   4.29568
 4.2400   4.06450
 4.2365   4.16028
 4.2330   4.28794
 4.2296   4.26088
 4.2261   4.51465
 4.2227   4.75570
 4.2193   4.51796
 4.2158   4.20549
 4.2124   4.26244
 4.2090   4.30639
 4.2056   4.13302
 4.2022   4.00740
 4.1988   4.15839
 4.1954   4.30503
 4.1920   4.16573
 4.1886   4.22606
 4.1852   4.29074
 4.1818   4.06655
 4.1785   4.03763
 4.1751   4.36931
 4.1717   4.62411
 4.1684   4.57425
 4.1650   4.33547
 4.1617   4.45622
 4.1584   4.69476
 4.1550   4.64689
 4.1517   4.43459
 4.1484   4.29189
 4.1451   4.28146
 4.1418   4.34321
 4.1384   4.43041
 4.1351   4.54412
 4.1319   4.69353
 4.1286   4.65593
 4.1253   4.28438
 4.1220   4.01732
 4.1187   3.83033
 4.1155   4.20877
 4.1122   4.78779
 4.1089   4.93862
 4.1057   4.78156
 4.1024   4.66418
 4.0992   4.51977
 4.0959   4.53199
 4.0927   4.64761
 4.0895   4.45617
 4.0863   4.26228
 4.0830   4.52730
 4.0798   4.69896
 4.0766   4.80186
 4.0734   4.90625
 4.0702   4.76953
 4.0670   4.50257
 4.0639   4.13473
 4.0607   4.06773
 4.0575   4.22060
 4.0543   4.41880
 4.0511   4.48651
 4.0480   4.53337
 4.0448   4.60107
 4.0417   4.40279
 4.0385   4.25752
 4.0354   4.33081
 4.0323   4.56568
 4.0291   4.75333
 4.0260   4.72897
 4.0229   4.60721
 4.0197   4.52968
 4.0166   4.66387
 4.0135   4.72443
 4.0104   4.64773
 4.0073   4.58519
 4.0042   4.75475
 4.0011   4.53511
 3.9981   4.42714
 3.9950   4.74185
 3.9919   4.64494
 3.9888   4.45413
 3.9857   4.40241
 3.9827   4.30734
 3.9796   4.63400
 3.9766   4.60061
 3.9735   4.47852
 3.9705   4.37862
 3.9675   4.40594
 3.9644   4.72261
 3.9614   4.58026
 3.9584   4.17274
 3.9554   4.31731
 3.9523   4.53501
 3.9493   4.45335
 3.9463   4.59794
 3.9433   4.56301
 3.9403   4.28412
 3.9373   4.37494
 3.9343   4.67404
 3.9314   4.70650
 3.9284   4.80942
 3.9254   4.71829
 3.9224   4.57887
 3.9195   4.62957
 3.9165   4.61212
 3.9136   4.69398
 3.9106   4.43075
 3.9077   4.06684
 3.9047   4.09272
 3.9018   4.37458
 3.8988   4.57604
 3.8959   4.71080
 3.8930   5.01070
 3.8901   4.80775
 3.8872   4.32845
 3.8842   4.33349
 3.8813   4.25151
 3.8784   4.21415
 3.8755   4.29781
 3.8726   4.47734
 3.8697   4.51599
 3.8669   4.36964
 3.8640   4.45647
 3.8611   4.44207
 3.8582   4.48018
 3.8554   4.71570
 3.8525   4.69938
 3.8496   4.64157
 3.8468   4.72046
 3.8439   4.50096
 3.8411   4.45716
 3.8382   4.39226
 3.8354   4.39132
 3.8326   4.83515
 3.8297   4.64268
 3.8269   4.08916
 3.8241   4.21190
 3.8213   4.66858
 3.8185   4.49400
 3.8157   4.35904
 3.8128   4.63240
 3.8100   4.86986
 3.8072   4.66997
 3.8045   4.52840
 3.8017   4.66262
 3.7989   4.81568
 3.7961   4.85302
 3.7933   4.54175
 3.7906   4.44911
 3.7878   4.63779
 3.7850   4.65971
 3.7822   4.51251
 3.7795   4.45106
 3.7767   4.62082
 3.7740   4.75877
 3.7713   4.47112
 3.7685   4.05902
 3.7658   4.08116
 3.7630   4.34558
 3.7603   4.56723
 3.7576   4.81036
 3.7549   4.58564
 3.7521   4.14201
 3.7494   4.37551
 3.7467   4.51994
 3.7440   4.47275
 3.7413   4.50166
 3.7386   4.66744
 3.7359   4.68970
 3.7332   4.88351
 3.7306   4.63499
 3.7279   4.22319
 3.7252   4.18412
 3.7225   4.07874
 3.7199   4.24164
 3.7172   4.67127
 3.7145   4.91753
 3.7119   4.63859
 3.7092   4.44325
 3.7066   4.41951
 3.7039   4.51631
 3.7013   4.67458
 3.6986   4.98352
 3.6960   5.00721
 3.6934   4.55726
 3.6907   4.29068
 3.6881   4.19510
 3.6855   4.28253
 3.6829   4.36221
 3.6803   4.57749
 3.6776   4.93610
 3.6750   4.75461
 3.6724   4.41081
 3.6698   4.56747
 3.6672   4.88383
 3.6646   4.70954
 3.6620   4.30746
 3.6595   4.20624
 3.6569   4.22825
 3.6543   4.21883
 3.6517   4.42859
 3.6492   4.68546
 3.6466   4.50560
 3.6440   4.50698
 3.6415   4.50739
 3.6389   4.13963
 3.6364   3.82702
 3.6338   4.02839
 3.6313   4.49563
 3.6287   4.56963
 3.6262   4.08453
 3.6237   4.07073
 3.6211   4.66150
 3.6186   4.60393
 3.6161   4.35834
 3.6136   4.57406
 3.6111   4.43907
 3.6085   4.45850
 3.6060   4.37714
 3.6035   4.27610
 3.6010   4.35564
 3.5985   4.26419
 3.5960   4.33401
 3.5935   4.34043
 3.5910   4.05208
 3.5886   3.81755
 3.5861   3.96717
 3.5836   4.12107
 3.5811   4.24308
 3.5787   4.06110
 3.5762   3.78511
 3.5737   3.75325
 3.5713   3.89143
 3.5688   4.24723
 3.5663   4.33175
 3.5639   4.32975
 3.5614   4.31018
 3.5590   4.13838
 3.5566   4.22509
 3.5541   4.35799
 3.5517   4.43096
 3.5493   4.46739
 3.5468   4.08501
 3.5444   3.72850
 3.5420   3.87830
 3.5396   4.41565
 3.5372   4.52982
 3.5347   4.43647
 3.5323   4.43478
 3.5299   4.25319
 3.5275   3.99351
 3.5251   4.35199
 3.5227   4.68419
 3.5203   4.06643
 3.5180   3.77409
 3.5156   3.97323
 3.5132   4.17833
 3.5108   4.08981
 3.5084   4.19556
 3.5061   4.22438
 3.5037   4.03116
 3.5013   3.75407
 3.4990   3.80267
 3.4966   4.01124
 3.4943   4.00051
 3.4919   3.80312
 3.4895   3.60372
 3.4872   3.92160
 3.4849   4.12957
 3.4825   4.34729
 3.4802   4.34436
 3.4778   3.95382
 3.4755   3.89511
 3.4732   4.13476
 3.4709   4.50166
 3.4685   4.77776
 3.4662   4.54177
 3.4639   4.20096
 3.4616   4.12775
 3.4593   3.75173
 3.4570   3.57905
 3.4547   4.11937
 3.4524   4.17967
 3.4501   4.25055
 3.4478   4.01373
 3.4455   3.86533
 3.4432   3.85136
 3.4409   3.71839
 3.4386   3.53185
 3.4364   3.69450
 3.4341   3.90468
 3.4318   4.44606
 3.4295   4.89184
 3.4273   4.86118
 3.4250   4.09777
 3.4228   3.88668
 3.4205   4.15442
 3.4182   3.77365
 3.4160   3.71658
 3.4137   4.21667
 3.4115   4.00523
 3.4093   4.00495
 3.4070   4.33996
 3.4048   4.42640
 3.4025   3.58921
 3.4003   2.91818
 3.3981   3.18573
 3.3958   3.89444
 3.3936   3.90027
 3.3914   3.61426
 3.3892   3.83289
 3.3870   4.12047
 3.3848   4.06363
 3.3826   3.60825
 3.3804   3.71531
 3.3782   4.08289
 3.3760   4.25560
 3.3738   4.08374
 3.3716   3.92041
 3.3694   4.16075
 3.3672   4.01301
 3.3650   4.21354
 3.3628   3.96814
 3.3606   3.56664
 3.3585   3.80907
 3.3563   3.77022
 3.3541   3.73140
 3.3520   4.07553
 3.3498   4.52673
 3.3476   4.50589
 3.3455   4.39374
 3.3433   3.87190
 3.3411   3.37815
 3.3390   3.72940
 3.3369   4.00829
 3.3347   4.19840
 3.3326   4.32788
 3.3304   4.36971
 3.3283   4.09153
 3.3262   3.97045
 3.3240   4.01377
 3.3219   3.66696
 3.3198   3.80758
 3.3176   3.90612
 3.3155   4.12003
 3.3134   3.83317
 3.3113   3.77003
 3.3092   3.92905
 3.3071   3.76435
 3.3049   3.62049
 3.3028   3.61486
 3.3007   3.97163
 3.2986   4.28848
 3.2965   4.11062
 3.2944   4.09778
 3.2924   4.02035
 3.2903   3.77290
 3.2882   3.67359
 3.2861   3.73071
 3.2840   3.82005
 3.2819   3.54116
 3.2799   3.39510
 3.2778   3.53456
 3.2757   3.86494
 3.2736   3.94430
 3.2716   3.45524
 3.2695   3.11643
 3.2675   3.65261
 3.2654   4.18951
 3.2634   4.08049
 3.2613   3.82666
 3.2593   3.81894
 3.2572   3.96057
 3.2552   3.86896
 3.2531   3.46633
 3.2511   3.08866
 3.2490   3.27677
 3.2470   3.92981
 3.2450   3.82775
 3.2429   3.94552
 3.2409   4.34188
 3.2389   4.16618
 3.2369   3.98891
 3.2348   3.89594
 3.2328   3.62140
 3.2308   3.47007
 3.2288   3.24479
 3.2268   3.02784
 3.2248   3.12766
 3.2228   3.82014
 3.2208   4.01194
 3.2188   3.35122
 3.2168   3.40442
 3.2148   4.05709
 3.2128   4.31913
 3.2108   4.37365
 3.2088   3.95666
 3.2068   3.31978
 3.2049   3.50524
 3.2029   3.62088
 3.2009   3.51214
 3.1989   3.92382
 3.1970   3.90352
 3.1950   4.05541
 3.1930   3.88700
 3.1911   3.87505
 3.1891   3.85944
 3.1871   3.42014
 3.1852   3.57868
 3.1832   3.20136
 3.1813   3.31556
 3.1793   3.93280
 3.1774   4.14526
 3.1754   3.97426
 3.1735   3.78880
 3.1715   3.61932
 3.1696   3.06012
 3.1677   3.39695
 3.1657   3.90046
 3.1638   3.74189
 3.1619   3.26907
 3.1599   3.24004
 3.1580   3.51912
 3.1561   3.90630
 3.1542   3.85249
 3.1523   3.99882
 3.1503   3.65694
 3.1484   3.28416
 3.1465   3.34885
 3.1446   3.79871
 3.1427   3.97789
 3.1408   3.83525
 3.1389   3.54082
 3.1370   3.11645
 3.1351   2.80633
 3.1332   2.16676
 3.1313   2.56155
 3.1294   2.98441
 3.1275   3.10437
 3.1257   3.26810
 3.1238   2.87001
 3.1219   3.13677
 3.1200   3.70998
 3.1181   3.11524
 3.1163   2.56520
 3.1144   2.54767
 3.1125   2.78351
 3.1107   3.28989
 3.1088   3.31363
 3.1069   3.31872
 3.1051   3.96956
 3.1032   3.82782
 3.1014   3.42535
 3.0995   2.53623
 3.0976   2.53385
 3.0958   3.58313
 3.0940   4.02837
 3.0921   3.62557
 3.0903   2.80979
 3.0884   2.52063
 3.0866   2.69173
 3.0848   2.90418
 3.0829   3.27595
 3.0811   3.06940
 3.0793   3.34189
 3.0774   3.25667
 3.0756   2.81908
 3.0738   3.28785
 3.0720   4.09538
 3.0701   3.70919
 3.0683   2.90863
 3.0665   2.75056
 3.0647   3.03613
 3.0629   2.83953
 3.0611   2.73415
 3.0593   3.31481
 3.0575   3.84737
 3.0557   3.70311
 3.0539   3.74261
 3.0521   3.88397
 3.0503   3.14751
 3.0485   2.93871
 3.0467   3.46121
 3.0449   3.49778
 3.0431   3.36133
 3.0413   3.33412
 3.0396   3.11552
 3.0378   2.66628
 3.0360   2.39294
 3.0342   2.88562
 3.0324   3.21635
 3.0307   2.91050
 3.0289   2.47718
 3.0271   2.36463
 3.0254   2.98949
 3.0236   3.21993
 3.0218   3.04600
 3.0201   3.61641
 3.0183   3.59527
 3.0166   3.77594
 3.0148   3.74031
 3.0130   3.29513
 3.0113   3.35026
 3.0096   3.12831
 3.0078   2.73530
 3.0061   2.85523
 3.0043   3.59279
 3.0026   3.52596
 3.0008   3.00855
 2.9991   2.67995
 2.9974   2.37449
 2.9956   2.65147
 2.9939   3.28631
 2.9922   3.29845
 2.9905   2.75080
 2.9887   2.70388
 2.9870   2.69845
 2.9853   2.60302
 2.9836   3.82796
 2.9819   4.05056
 2.9802   3.20545
 2.9784   3.45775
 2.9767   3.03560
 2.9750   2.84423
 2.9733   3.13900
 2.9716   3.33089
 2.9699   3.56071
 2.9682   3.32123
 2.9665   3.08510
 2.9648   2.95166
 2.9631   2.53906
 2.9614   2.64872
 2.9597   2.68387
 2.9581   2.86808
 2.9564   3.13532
 2.9547   3.15087
 2.9530   2.95899
 2.9513   3.07327
 2.9496   2.75630
 2.9480   3.00677
 2.9463   3.62336
 2.9446   3.81754
 2.9429   4.42268
 2.9413   4.40595
 2.9396   3.24957
 2.9379   3.16197
 2.9363   4.12270
 2.9346   3.39500
 2.9330   2.65302
 2.9313   3.42014
 2.9296   3.63951
 2.9280   2.90525
 2.9263   2.06021
 2.9247   3.18388
 2.9230   3.57997
 2.9214   2.69329
 2.9197   2.49767
 2.9181   2.44576
 2.9165   2.63348
 2.9148   2.82872
 2.9132   2.70209
 2.9116   2.50236
 2.9099   2.90142
 2.9083   3.09330
 2.9067   3.73116
 2.9050   3.90566
 2.9034   2.88216
 2.9018   2.69513
 2.9002   3.84113
 2.8985   3.78075
 2.8969   3.54421
 2.8953   3.63431
 2.8937   3.06541
 2.8921   2.66607
 2.8905   3.29206
 2.8888   3.02886
 2.8872   2.69402
 2.8856   3.32218
 2.8840   3.37242
 2.8824   2.61894
 2.8808   2.50050
 2.8792   2.93843
 2.8776   3.34235
 2.8760   3.01585
 2.8744   2.83978
 2.8728   2.72912
 2.8712   2.80532
 2.8697   2.42432
 2.8681   2.57786
 2.8665   2.97410
 2.8649   3.64673
 2.8633   4.52893
 2.8617   4.62281
 2.8602   4.05373
 2.8586   2.75329
 2.8570   1.71799
 2.8554   1.94024
 2.8539   2.86775
 2.8523   3.21356
 2.8507   2.87720
 2.8492   2.87417
 2.8476   3.21037
 2.8460   3.49891
 2.8445   4.01308
 2.8429   4.07112
 2.8413   3.70615
 2.8398   3.37232
 2.8382   3.65439
 2.8367   3.01489
 2.8351   2.47517
 2.8336   2.86035
 2.8320   3.27689
 2.8305   3.12509
 2.8289   3.11150
 2.8274   3.17733
 2.8259   2.78811
 2.8243   2.14286
 2.8228   2.56790
 2.8213   3.42152
 2.8197   3.46579
 2.8182   3.61283
 2.8167   3.90878
 2.8151   3.70831
 2.8136   2.90455
 2.8121   2.96450
 2.8106   4.14816
 2.8090   3.81989
 2.8075   3.10053
 2.8060   2.93913
 2.8045   3.08548
 2.8030   2.60973
 2.8014   2.70560
 2.7999   3.31591
 2.7984   3.13834
 2.7969   2.28185
 2.7954   1.76050
 2.7939   1.70419
 2.7924   2.13889
 2.7909   2.89973
 2.7894   3.47382
 2.7879   3.01356
 2.7864   3.04020
 2.7849   3.74179
 2.7834   4.21687
 2.7819   3.90110
 2.7804   3.44637
 2.7789   3.30854
 2.7774   3.24616
 2.7759   2.81836
 2.7745   3.30039
 2.7730   3.73324
 2.7715   3.66976
 2.7700   3.75436
 2.7685   3.15836
 2.7671   2.87558
 2.7656   3.37308
 2.7641   3.44128
 2.7626   2.99683
 2.7612   2.24592
 2.7597   2.65300
 2.7582   3.98747
 2.7568   3.97593
 2.7553   3.56919
 2.7538   3.31711
 2.7524   2.85524
 2.7509   2.44616
 2.7494   2.81863
 2.7480   2.54457
 2.7465   2.76361
 2.7451   3.67434
 2.7436   3.18459
 2.7422   3.07165
 2.7407   3.88294
 2.7393   3.53984
 2.7378   2.42507
 2.7364   2.37769
 2.7350   2.47220
 2.7335   2.40493
 2.7321   3.09299
 2.7306   3.48775
 2.7292   3.43958
 2.7278   3.94514
 2.7263   3.45791
 2.7249   3.12753
 2.7235   3.30128
 2.7220   3.11599
 2.7206   3.51446
 2.7192   3.91680
 2.7178   3.87921
 2.7163   4.22670
 2.7149   4.17686
 2.7135   4.07192
 2.7121   4.35944
 2.7106   4.82177
 2.7092   4.26464
 2.7078   4.21685
 2.7064   4.61126
 2.7050   3.80236
 2.7036   3.50077
 2.7022   4.31169
 2.7008   5.22945
 2.6994   5.56676
 2.6980   5.39564
 2.6965   5.30659
 2.6951   5.40199
 2.6938   4.80914
 2.6923   4.59759
 2.6910   5.22160
 2.6896   5.34312
 2.6882   4.72345
 2.6868   4.49997
 2.6854   4.97572
 2.6840   5.16806
 2.6826   5.06072
 2.6812   5.34046
 2.6798   5.02105
 2.6784   5.05583
 2.6771   5.33330
 2.6757   5.01474
 2.6743   4.64124
 2.6729   4.62244
 2.6715   4.94174
 2.6702   4.84478
 2.6688   4.76897
 2.6674   4.88561
 2.6660   4.35665
 2.6647   5.26592
 2.6633   5.87603
 2.6619   5.59542
 2.6606   5.35399
 2.6592   5.27538
 2.6578   4.87101
 2.6565   4.45423
 2.6551   4.10274
 2.6538   4.35516
 2.6524   4.70633
 2.6511   5.04369
 2.6497   5.07012
 2.6484   4.50568
 2.6470   4.57389
 2.6456   5.66104
 2.6443   5.46380
 2.6429   5.22679
 2.6416   4.92181
 2.6403   4.30364
 2.6389   5.02039
 2.6376   5.34355
 2.6362   5.23029
 2.6349   5.77471
 2.6336   5.32524
 2.6322   4.69678
 2.6309   4.54183
 2.6296   4.24650
 2.6282   4.26554
 2.6269   4.99472
 2.6256   5.72958
 2.6242   5.60662
 2.6229   5.28561
 2.6216   4.33406
 2.6203   3.76002
 2.6189   3.86854
 2.6176   4.92955
 2.6163   5.64332
 2.6150   5.82615
 2.6136   5.33884
 2.6123   4.95452
 2.6110   4.25716
 2.6097   4.49655
 2.6084   5.37731
 2.6071   5.01030
 2.6058   4.20752
 2.6044   4.37421
 2.6031   4.42984
 2.6018   4.18540
 2.6005   4.95162
 2.5992   5.34870
 2.5979   4.83375
 2.5966   4.75885
 2.5953   4.42373
 2.5940   4.28860
 2.5927   4.16342
 2.5914   4.00871
 2.5901   4.88967
 2.5888   5.65515
 2.5876   5.49146
 2.5863   5.40994
 2.5850   5.56798
 2.5837   5.51180
 2.5824   5.33960
 2.5811   5.52755
 2.5798   5.97028
 2.5785   5.83547
 2.5773   5.01046
 2.5760   4.27427
 2.5747   5.25355
 2.5734   6.34398
 2.5722   5.26314
 2.5709   4.28777
 2.5696   4.36551
 2.5683   4.89246
 2.5671   5.86396
 2.5658   5.92506
 2.5645   5.37442
 2.5633   5.01613
 2.5620   4.77624
 2.5607   4.74155
 2.5595   4.79251
 2.5582   4.63716
 2.5569   4.28559
 2.5557   4.67367
 2.5544   5.14255
 2.5532   5.58285
 2.5519   5.19890
 2.5507   5.04490
 2.5494   5.21165
 2.5481   4.52162
 2.5469   4.40707
 2.5456   4.62749
 2.5444   4.58071
 2.5431   4.57840
 2.5419   5.56153
 2.5406   6.38306
 2.5394   5.11126
 2.5382   4.66335
 2.5369   5.80777
 2.5357   5.63437
 2.5344   5.02131
 2.5332   4.56649
 2.5320   4.67148
 2.5307   3.76523
 2.5295   3.78184
 2.5283   5.18284
 2.5270   5.39776
 2.5258   4.45972
 2.5246   5.27494
 2.5233   5.92411
 2.5221   5.36693
 2.5209   5.34699
 2.5197   6.31197
 2.5184   6.40214
 2.5172   5.34344
 2.5160   4.81634
 2.5148   5.87034
 2.5136   5.70013
 2.5123   4.32066
 2.5111   4.78179
 2.5099   5.25275
 2.5087   4.77109
 2.5075   4.81903
 2.5063   5.54636
 2.5051   5.39543
 2.5038   4.99213
 2.5026   4.46441
 2.5014   3.20111
 2.5002   3.34776
 2.4990   4.01232
 2.4978   4.57841
 2.4966   4.31625
 2.4954   4.28202
 2.4942   5.00579
 2.4930   5.45758
 2.4918   5.77884
 2.4906   5.26332
 2.4894   4.47679
 2.4882   4.70758
 2.4870   5.85782
 2.4858   5.77348
 2.4846   5.16350
 2.4835   5.57875
 2.4823   5.01550
 2.4811   4.36962
 2.4799   4.81495
 2.4787   5.55831
 2.4775   5.35275
 2.4764   5.69543
 2.4752   6.45084
 2.4740   5.77237
 2.4728   5.00209
 2.4716   4.52564
 2.4705   4.96734
 2.4693   5.27756
 2.4681   5.31594
 2.4669   4.21915
 2.4657   4.34142
 2.4646   5.33840
 2.4634   5.46597
 2.4622   5.85382
 2.4611   6.31967
 2.4599   5.19697
 2.4587   4.59597
 2.4576   4.70200
 2.4564   5.02897
 2.4552   5.65859
 2.4541   4.65397
 2.4529   4.06718
 2.4518   3.85525
 2.4506   4.41523
 2.4494   5.76909
 2.4483   5.31316
 2.4471   4.68459
 2.4460   4.46836
 2.4448   4.11751
 2.4437   4.08861
 2.4425   4.41672
 2.4414   6.04247
 2.4402   6.32199
 2.4391   5.62212
 2.4379   5.33475
 2.4368   4.70642
 2.4356   4.68806
 2.4345   5.10164
 2.4333   5.09662
 2.4322   4.45872
 2.4311   4.44123
 2.4299   4.80681
 2.4288   3.99777
 2.4276   4.79762
 2.4265   6.04424
 2.4254   4.53733
 2.4242   3.74459
 2.4231   4.43954
 2.4220   4.62163
 2.4209   4.51482
 2.4197   5.17611
 2.4186   5.69875
 2.4175   5.30225
 2.4163   5.16167
 2.4152   4.88899
 2.4141   4.72835
 2.4130   5.05756
 2.4118   6.10282
 2.4107   5.70273
 2.4096   5.00108
 2.4085   4.78537
 2.4074   4.51873
 2.4063   5.17607
 2.4051   5.73594
 2.4040   4.95759
 2.4029   4.73124
 2.4018   5.47590
 2.4007   5.21777
 2.3996   4.83251
 2.3985   5.19283
 2.3973   5.73605
 2.3962   5.19401
 2.3951   4.18510
 2.3940   4.44751
 2.3929   3.86295
 2.3918   3.07769
 2.3907   4.71808
 2.3896   6.03498
 2.3885   5.84688
 2.3874   4.98593
 2.3863   4.81908
 2.3852   5.57832
 2.3841   5.86398
 2.3830   5.61363
 2.3819   6.06330
 2.3808   6.23000
 2.3798   5.32902
 2.3786   4.39732
 2.3776   4.17226
 2.3765   4.60113
 2.3754   4.00725
 2.3743   4.16520
 2.3732   4.71028
 2.3721   5.22836
 2.3710   5.32380
 2.3700   5.87129
 2.3689   5.48522
 2.3678   4.26045
 2.3667   4.09490
 2.3656   4.66850
 2.3645   5.29812
 2.3635   5.95989
 2.3624   6.01479
 2.3613   4.84415
 2.3603   3.63282
 2.3592   4.34897
 2.3581   5.27234
 2.3570   4.94649
 2.3560   4.62867
 2.3549   3.70526
 2.3538   3.66035
 2.3527   5.04044
 2.3517   5.68732
 2.3506   5.67869
 2.3495   5.31950
 2.3485   4.56836
 2.3474   4.83195
 2.3464   5.11777
 2.3453   5.65563
 2.3442   5.51926
 2.3432   4.47861
 2.3421   4.01142
 2.3411   4.37577
 2.3400   4.87139
 2.3390   5.00688
 2.3379   6.56462
 2.3369   7.14290
 2.3358   6.35463
 2.3347   5.55579
 2.3337   5.05546
 2.3326   3.83748
 2.3316   3.04657
 2.3306   4.23500
 2.3295   5.13475
 2.3285   4.90793
 2.3274   4.72779
 2.3264   6.16806
 2.3253   6.66185
 2.3243   5.92996
 2.3232   5.89118
 2.3222   6.56227
 2.3212   6.62343
 2.3201   6.44730
 2.3191   5.19844
 2.3180   3.54806
 2.3170   3.27969
 2.3160   3.77461
 2.3149   3.96715
 2.3139   3.81159
 2.3129   2.82287
 2.3118   2.92094
 2.3108   5.53161
 2.3098   6.23758
 2.3088   5.74419
 2.3077   5.81411
 2.3067   5.20337
 2.3057   4.05615
 2.3047   3.64888
 2.3036   4.83049
 2.3026   4.76665
 2.3016   3.56510
 2.3006   4.10971
 2.2995   4.21954
 2.2985   3.29006
 2.2975   3.73848
 2.2965   5.04828
 2.2955   4.77632
 2.2944   4.03600
 2.2934   3.91773
 2.2924   4.39078
 2.2914   5.12664
 2.2904   5.51538
 2.2894   5.06152
 2.2884   5.32233
 2.2874   5.18187
 2.2864   5.22396
 2.2854   5.34811
 2.2843   5.53310
 2.2833   6.16181
 2.2823   5.50221
 2.2813   4.52478
 2.2803   4.19425
 2.2793   4.37889
 2.2783   4.79810
 2.2773   4.97646
 2.2763   5.06397
 2.2753   4.57370
 2.2743   4.15171
 2.2733   4.40647
 2.2723   6.76026
 2.2713   6.54398
 2.2703   4.66491
 2.2694   5.43056
 2.2684   5.24780
 2.2674   4.60663
 2.2664   5.31915
 2.2654   4.76425
 2.2644   4.89535
 2.2634   4.91482
 2.2624   3.43930
 2.2614   4.09581
 2.2605   5.01062
 2.2595   3.15903
 2.2585   3.92154
 2.2575   5.43371
 2.2565   5.62498
 2.2555   5.60186
 2.2546   5.58614
 2.2536   6.70804
 2.2526   7.54577
 2.2516   5.67601
 2.2506   4.17015
 2.2497   4.36720
 2.2487   5.06303
 2.2477   4.65305
 2.2467   4.09909
 2.2458   4.56012
 2.2448   4.49463
 2.2438   3.94482
 2.2428   3.38466
 2.2419   3.70800
 2.2409   5.21883
 2.2399   4.94224
 2.2390   6.11923
 2.2380   7.65611
 2.2370   7.03461
 2.2361   6.41063
 2.2351   5.01671
 2.2342   5.15514
 2.2332   6.04766
 2.2322   6.50735
 2.2313   5.37857
 2.2303   3.24952
 2.2294   2.12096
 2.2284   5.64781
 2.2274   7.04099
 2.2265   5.27915
 2.2255   4.98031
 2.2246   4.76978
 2.2236   5.60862
 2.2227   6.21131
 2.2217   5.42788
 2.2208   5.31444
 2.2198   6.50285
 2.2189   7.24740
 2.2179   4.22601
 2.2170   1.49972
 2.2160   2.01160
 2.2151   3.78997
 2.2141   5.27009
 2.2132   6.30872
 2.2122   6.46011
 2.2113   5.09391
 2.2103   4.28719
 2.2094   5.36697
 2.2085   6.20996
 2.2075   6.92410
 2.2066   7.54122
 2.2056   7.05358
 2.2047   6.62915
 2.2038   4.92528
 2.2028   4.12817
 2.2019   5.14141
 2.2010   6.02585
 2.2000   6.53679
 2.1991   5.56515
 2.1982   5.56800
 2.1972   6.67322
 2.1963   5.94452
 2.1954   5.43498
 2.1944   5.97982
 2.1935   5.03355
 2.1926   4.96307
 2.1917   5.52870
 2.1907   5.87583
 2.1898   5.11117
 2.1889   4.85793
 2.1880   4.72031
 2.1870   3.59987
 2.1861   3.73588
 2.1852   5.44670
 2.1843   5.21777
 2.1833   5.27409
 2.1824   6.36988
 2.1815   5.94087
 2.1806   5.90734
 2.1797   7.16972
 2.1788   7.19574
 2.1778   5.29030
 2.1769   3.08211
 2.1760   3.48181
 2.1751   5.74802
 2.1742   6.14207
 2.1733   4.78235
 2.1724   4.43829
 2.1715   4.35727
 2.1706   1.34773
 2.1696   1.61810
 2.1687   4.80246
 2.1678   4.58581
 2.1669   3.99968
 2.1660   4.66449
 2.1651   7.04046
 2.1642   6.71161
 2.1633   5.01771
 2.1624   5.12667
 2.1615   5.53362
 2.1606   5.72078
 2.1597   4.55161
 2.1588   5.69503
 2.1579   5.83453
 2.1570   3.46299
 2.1561   2.06843
 2.1552   2.49455
 2.1543   2.81116
 2.1534   4.01952
 2.1525   5.67086
 2.1517   6.12172
 2.1507   6.97122
 2.1499   5.46223
 2.1490   1.93313
 2.1481   2.66990
 2.1472   6.36961
 2.1463   7.34196
 2.1454   7.30265
 2.1445   6.17518
 2.1436   3.89589
 2.1428   5.10925
 2.1419   6.32605
 2.1410   4.50684
 2.1401   2.50519
 2.1392   4.33645
 2.1383   5.15813
 2.1375   5.00677
 2.1366   3.45691
 2.1357   4.10785
 2.1348   5.76135
 2.1339   8.22965
 2.1331   7.83419
 2.1322   4.84290
 2.1313   5.09318
 2.1304   3.96738
 2.1296   3.27199
 2.1287   4.73829
 2.1278   5.39138
 2.1269   5.45099
 2.1261   4.20918
 2.1252   5.18898
 2.1243   4.73790
 2.1235   3.19267
 2.1226   3.55899
 2.1217   4.33741
 2.1208   5.58809
 2.1200   5.57073
 2.1191   5.61947
 2.1183   5.56971
 2.1174   4.73046
 2.1165   5.48825
 2.1157   4.13733
 2.1148   4.45386
 2.1139   6.52329
 2.1131   7.62537
 2.1122   6.25511
 2.1113   5.23061
 2.1105   6.06484
 2.1096   6.19732
 2.1088   4.88665
 2.1079   5.14024
 2.1071   5.99799
 2.1062   7.30686
 2.1054   4.79800
 2.1045   1.16940
 2.1036   2.80940
 2.1028   6.07748
 2.1019   6.88902
 2.1011   6.30861
 2.1002   4.61302
 2.0994   2.88641
 2.0985   3.72309
 2.0977   4.19273
 2.0968   3.95225
 2.0960   3.36434
 2.0951   4.31371
 2.0943   4.64841
 2.0934   2.16676
 2.0926   1.81353
 2.0918   4.56077
 2.0909   6.85561
 2.0901   6.41108
 2.0892   5.66928
 2.0884   3.61005
 2.0875   4.51386
 2.0867   4.63659
 2.0859   5.31198
 2.0850   6.22927
 2.0842   4.34098
 2.0833   3.43194
 2.0825   5.34598
 2.0817   3.73118
 2.0808   1.57455
 2.0800   3.28465
 2.0792   5.01616
 2.0783   6.44981
 2.0775   4.20271
 2.0767   5.16544
 2.0759   5.22687
 2.0750   3.49203
 2.0742   3.93863
 2.0734   4.33916
 2.0725   6.72636
 2.0717   7.69859
 2.0709   4.28018
 2.0701   3.37881
 2.0692   5.30262
 2.0684   6.00101
 2.0676   5.51203
 2.0667   6.08190
 2.0659   3.40224
 2.0651   1.22912
 2.0643   0.37526
 2.0635   1.51843
 2.0626   4.42088
 2.0618   5.30277
 2.0610   4.24280
 2.0602   4.46625
 2.0594   6.04181
 2.0585   6.45836
 2.0577   5.19618
 2.0569   3.08238
 2.0561   2.67755
 2.0553   4.97904
 2.0545   5.75089
 2.0537   4.31142
 2.0528   6.33012
 2.0520   6.35409
 2.0512   5.13409
 2.0504   4.18213
 2.0496   3.16033
 2.0488   4.10046
 2.0480   4.41682
 2.0472   2.21038
 2.0464   1.77513
 2.0456   4.26220
 2.0447   6.33841
 2.0439   5.73849
 2.0431   3.91688
 2.0423   3.40823
 2.0415   3.98716
 2.0407   3.85226
 2.0399   1.65482
 2.0391  -0.08640
 2.0383   3.53712
 2.0375   6.74995
 2.0367   8.35313
 2.0359   7.22964
 2.0351   3.59340
 2.0343   1.10683
 2.0335   5.76162
 2.0327   8.05452
 2.0319   5.11549
 2.0311   2.24895
 2.0303   3.03827
 2.0295   5.71109
 2.0287   6.02407
 2.0280   6.61338
 2.0272   7.25548
 2.0264   7.19865
 2.0256   5.58067
 2.0248   5.74232
 2.0240   5.49462
 2.0232   5.34596
 2.0224   5.74355
 2.0216   6.70832
 2.0208   7.77293
 2.0200   6.62852
 2.0193   4.57294
 2.0185   4.60835
 2.0177   6.00776
 2.0169   6.81620
 2.0161   1.95750
 2.0153  -1.35732
 2.0146   2.65053
 2.0138   7.88840
 2.0130   8.97537
 2.0122   8.65816
 2.0114   7.04935
 2.0107   5.16094
 2.0099   3.49962
 2.0091   4.19453
 2.0083   3.24960
 2.0075   3.94169
 2.0068   6.14996
 2.0060   7.63806
 2.0052   5.75250
 2.0044   4.29124
 2.0037   4.15524
 2.0029   2.43009
 2.0021   3.88441
 2.0013   3.98758
 2.0006   1.36844
 1.9998   2.00999
