Name: Kaolinite Al_2Si_2O_5(OH)_4
Type: Mineral
Class: Silicates
Subclass: Phyllosilicates
Particle Size: 0-45um
Sample No.: PS-1B
Owner: JPL
Wavelength range: IR
Origin: USA, Georgia, Warren County
Collected by Clay Mineral Society
Description:  Disordered kaolinite. 





Measurement: Hemispherical reflectance
First Column: X
Second Column: Y
X Units:  Wavelength (micrometers)
Y Units:  Reflectance (percent)
First X Value: 15.3853
Last X Value: 2.00032
Number of X Values: 2256
Additional information: ps01ba.txt
 
15.3853	0.373159
15.3397	0.376813
15.2945	0.339399
15.2495	0.255468
15.2048	0.132873
15.1603	0.164403
15.1161	0.235363
15.0722	0.0732145
15.0285	0.146006
14.9851	0.360995
14.9419	0.332282
14.8989	0.247147
14.8563	0.20373
14.8138	0.300823
14.7716	0.370358
14.7296	0.296986
14.6879	0.20158
14.6464	0.36226
14.6052	0.414797
14.5641	0.230732
14.5233	0.194824
14.4828	0.254797
14.4424	0.292361
14.4023	0.234987
14.3624	0.1456
14.3227	0.125039
14.2833	0.171527
14.244	0.341386
14.205	0.237501
14.1662	-0.0922609
14.1276	0.00359998
14.0892	0.227276
14.051	0.081027
14.0131	0.00591404
13.9753	0.167305
13.9377	0.216162
13.9004	0.195965
13.8632	0.284413
13.8262	0.354496
13.7895	0.28504
13.7529	0.326015
13.7165	0.334269
13.6803	0.246802
13.6443	0.288109
13.6085	0.304492
13.5729	0.211736
13.5374	0.287342
13.5022	0.422873
13.4671	0.439436
13.4322	0.412722
13.3975	0.39901
13.363	0.391574
13.3286	0.339141
13.2944	0.398751
13.2604	0.491314
13.2266	0.501702
13.193	0.475454
13.1595	0.412612
13.1262	0.253487
13.093	0.334247
13.06	0.60697
13.0272	0.607006
12.9946	0.584153
12.9621	0.554987
12.9298	0.48904
12.8976	0.578886
12.8656	0.608711
12.8337	0.493869
12.8021	0.584098
12.7705	0.55261
12.7391	0.429168
12.7079	0.503298
12.6769	0.455582
12.6459	0.381165
12.6152	0.385641
12.5845	0.350649
12.5541	0.352367
12.5238	0.392305
12.4936	0.344829
12.4635	0.325983
12.4337	0.29019
12.4039	0.508081
12.3743	0.69445
12.3448	0.730903
12.3155	0.724589
12.2863	0.912292
12.2573	1.12527
12.2284	1.27306
12.1996	1.35468
12.171	1.39977
12.1425	1.49732
12.1141	1.57988
12.0859	1.54466
12.0578	1.60328
12.0298	1.69564
12.0019	1.76452
11.9742	1.80888
11.9466	1.81541
11.9192	2.01833
11.8918	2.27495
11.8646	2.35273
11.8375	2.3014
11.8106	2.27754
11.7837	2.25954
11.757	2.26957
11.7304	2.44022
11.7039	2.5933
11.6776	2.65802
11.6513	2.58364
11.6252	2.48426
11.5992	2.4755
11.5733	2.49199
11.5475	2.51005
11.5219	2.38483
11.4963	2.27996
11.4709	2.19353
11.4455	2.03119
11.4203	2.0159
11.3952	2.04568
11.3702	2.08212
11.3454	1.99425
11.3206	1.86773
11.2959	1.89328
11.2714	1.96246
11.2469	1.84853
11.2226	1.76243
11.1983	1.6315
11.1742	1.50797
11.1502	1.4587
11.1263	1.38647
11.1024	1.2517
11.0787	1.19505
11.0551	1.24747
11.0316	1.12896
11.0081	0.911813
10.9848	0.83016
10.9616	0.827392
10.9385	0.801207
10.9154	0.695974
10.8925	0.631658
10.8697	0.598854
10.8469	0.520644
10.8243	0.559904
10.8017	0.524168
10.7793	0.50675
10.7569	0.547398
10.7346	0.558261
10.7125	0.607959
10.6904	0.622067
10.6684	0.474361
10.6465	0.405075
10.6247	0.486233
10.6029	0.497376
10.5813	0.453481
10.5597	0.312882
10.5383	0.238258
10.5169	0.2533
10.4956	0.359901
10.4744	0.434772
10.4533	0.468842
10.4323	0.666015
10.4113	0.835467
10.3904	0.900237
10.3697	0.978239
10.349	1.04138
10.3284	1.04757
10.3078	1.14551
10.2874	1.25059
10.267	1.41569
10.2467	1.54608
10.2265	1.60322
10.2064	1.66222
10.1863	1.77423
10.1663	1.80213
10.1464	1.76129
10.1266	1.67594
10.1069	1.60244
10.0872	1.6522
10.0676	1.68507
10.0481	1.60283
10.0287	1.56651
10.0093	1.36826
9.99005	1.26192
9.97084	1.30913
9.95169	1.29115
9.93263	1.23861
9.91364	1.23194
9.89472	1.11457
9.87587	0.939818
9.8571	0.888894
9.83839	0.9247
9.81976	0.875428
9.80119	0.815212
9.78271	0.866711
9.76428	0.975715
9.74592	1.1541
9.72764	1.20758
9.70943	1.3264
9.69128	1.48597
9.6732	1.44249
9.65518	1.44632
9.63724	1.54646
9.61935	1.72787
9.60155	1.78816
9.5838	1.77685
9.56611	1.76626
9.5485	1.73972
9.53094	1.73859
9.51345	1.67628
9.49604	1.68132
9.47867	1.77271
9.46137	1.89182
9.44414	1.92969
9.42697	1.87013
9.40986	1.85808
9.39281	1.88521
9.37583	1.91638
9.35891	1.94813
9.34204	1.86216
9.32524	1.79075
9.3085	1.819
9.29182	1.75261
9.27519	1.65045
9.25863	1.63746
9.24213	1.44926
9.22568	1.23175
9.2093	1.23592
9.19297	1.30927
9.17669	1.28527
9.16048	1.20215
9.14433	1.02282
9.12823	0.911415
9.11218	0.844664
9.0962	0.668075
9.08027	0.544873
9.06439	0.48574
9.04858	0.444691
9.03281	0.45226
9.0171	0.436327
9.00145	0.482071
8.98585	0.542391
8.9703	0.519187
8.9548	0.610559
8.93937	0.925739
8.92398	1.22403
8.90865	1.34956
8.89337	1.28236
8.87814	1.21353
8.86296	1.36412
8.84784	1.48198
8.83277	1.53682
8.81774	1.4232
8.80277	1.4038
8.78786	1.48552
8.77298	1.34914
8.75816	1.23251
8.7434	1.141
8.72868	1.23931
8.714	1.34022
8.69938	1.25343
8.68481	1.04764
8.67029	0.909282
8.65581	0.849023
8.64139	0.875468
8.62701	0.942752
8.61268	0.908049
8.5984	0.752081
8.58416	0.654242
8.56997	0.589504
8.55583	0.560828
8.54174	0.650741
8.52769	0.683952
8.51368	0.580408
8.49973	0.526798
8.48582	0.560397
8.47195	0.571959
8.45813	0.417895
8.44436	0.323193
8.43062	0.41098
8.41693	0.344869
8.4033	0.181881
8.3897	0.132168
8.37614	0.178984
8.36264	0.292615
8.34917	0.340627
8.33574	0.292747
8.32236	0.19624
8.30903	0.166185
8.29573	0.201345
8.28248	0.271366
8.26927	0.311416
8.2561	0.30873
8.24298	0.235804
8.2299	0.208102
8.21685	0.246783
8.20385	0.2901
8.19089	0.24286
8.17797	0.2142
8.16509	0.229247
8.15225	0.202131
8.13946	0.186693
8.1267	0.195602
8.11398	0.120518
8.10131	0.135683
8.08867	0.145478
8.07606	0.210596
8.0635	0.353716
8.05099	0.312089
8.0385	0.290945
8.02606	0.397333
8.01366	0.40567
8.00129	0.426371
7.98896	0.504874
7.97667	0.573116
7.96442	0.57532
7.9522	0.584672
7.94002	0.50837
7.92788	0.510481
7.91578	0.513282
7.90371	0.448259
7.89168	0.568103
7.87969	0.670495
7.86773	0.708177
7.85581	0.774076
7.84392	0.80367
7.83207	0.807662
7.82026	0.859138
7.80849	0.930949
7.79674	0.95907
7.78503	0.993377
7.77337	0.996725
7.76173	1.07568
7.75012	1.19737
7.73856	1.23436
7.72703	1.16456
7.71553	1.1807
7.70406	1.24594
7.69263	1.31163
7.68123	1.3394
7.66987	1.37436
7.65855	1.46138
7.64725	1.52263
7.63598	1.54035
7.62475	1.53546
7.61356	1.55289
7.60239	1.59796
7.59126	1.65714
7.58017	1.71
7.5691	1.72857
7.55806	1.70211
7.54707	1.82285
7.5361	1.9317
7.52516	1.90662
7.51425	2.02216
7.50338	2.12236
7.49253	2.13318
7.48172	2.1657
7.47094	2.28667
7.46019	2.29257
7.44947	2.26856
7.43879	2.35554
7.42813	2.43758
7.4175	2.50915
7.4069	2.56102
7.39634	2.57503
7.3858	2.54733
7.37529	2.53913
7.36482	2.65779
7.35437	2.83085
7.34396	2.85361
7.33357	2.83051
7.32321	2.86718
7.31288	2.9743
7.30258	3.09252
7.29231	3.11445
7.28207	3.21838
7.27185	3.36695
7.26167	3.42822
7.25152	3.50111
7.24139	3.53845
7.23129	3.63903
7.22122	3.71903
7.21117	3.69367
7.20116	3.69512
7.19117	3.70286
7.18121	3.87366
7.17128	4.02073
7.16137	4.06939
7.1515	4.10487
7.14164	4.18683
7.13182	4.34892
7.12203	4.46034
7.11225	4.50975
7.10251	4.4932
7.0928	4.51557
7.08311	4.61782
7.07344	4.7126
7.06381	4.77884
7.0542	4.96727
7.04461	5.11398
7.03506	5.12506
7.02552	5.258
7.01601	5.35322
7.00653	5.35092
6.99708	5.37538
6.98765	5.4646
6.97824	5.59167
6.96886	5.76506
6.95951	5.95054
6.95018	5.99714
6.94087	5.95865
6.9316	6.03751
6.92234	6.20476
6.91311	6.2982
6.90391	6.28899
6.89473	6.20567
6.88557	6.2242
6.87644	6.43468
6.86733	6.66578
6.85824	6.52042
6.84918	6.25644
6.84015	6.25548
6.83114	6.35517
6.82215	6.42556
6.81319	6.46163
6.80424	6.48789
6.79532	6.63907
6.78643	6.75597
6.77756	6.76146
6.76871	6.80175
6.75989	6.94706
6.75109	7.06444
6.74231	7.11196
6.73355	7.20678
6.72482	7.34467
6.71611	7.47804
6.70742	7.49405
6.69875	7.4746
6.69011	7.61786
6.68149	7.76659
6.67289	7.76544
6.66431	7.87319
6.65576	7.92043
6.64722	8.07235
6.63871	8.28167
6.63022	8.34704
6.62175	8.37419
6.61331	8.40761
6.60488	8.4192
6.59648	8.65143
6.5881	8.84231
6.57974	8.97939
6.5714	9.18479
6.56308	9.21952
6.55478	9.29778
6.54651	9.25395
6.53825	9.18145
6.53001	9.24979
6.5218	9.4121
6.51361	9.43473
6.50544	9.4638
6.49729	9.69474
6.48915	9.684
6.48104	9.51031
6.47295	9.44875
6.46488	9.39643
6.45683	9.46493
6.4488	9.58683
6.44079	9.72271
6.4328	9.93373
6.42482	10.1316
6.41687	10.4457
6.40894	10.4055
6.40103	10.0998
6.39314	10.0878
6.38526	10.2239
6.37741	10.3152
6.36957	10.3347
6.36176	10.2593
6.35396	10.3208
6.34618	10.4982
6.33843	10.3488
6.33069	10.268
6.32297	10.2433
6.31527	10.1463
6.30758	10.1987
6.29992	10.2872
6.29227	10.3106
6.28465	10.2752
6.27704	10.3574
6.26945	10.4291
6.26188	10.5222
6.25432	10.6446
6.24679	10.6945
6.23927	10.7155
6.23177	10.7246
6.22429	10.6949
6.21683	10.7012
6.20938	10.75
6.20195	10.7399
6.19454	10.6524
6.18715	10.6089
6.17978	10.3063
6.17242	10.0009
6.16508	9.96722
6.15776	9.87833
6.15045	9.67359
6.14317	9.56644
6.1359	9.51938
6.12864	9.45677
6.12141	9.53669
6.11419	9.68687
6.10699	9.61299
6.0998	9.58738
6.09263	9.58232
6.08549	9.60443
6.07835	9.81833
6.07123	9.96368
6.06413	9.85982
6.05705	10.0571
6.04998	10.4519
6.04293	10.2516
6.0359	10.0819
6.02888	10.115
6.02187	10.2841
6.01489	10.4707
6.00792	10.4536
6.00096	10.52
5.99403	10.7979
5.98711	10.8447
5.9802	10.7723
5.97331	10.9743
5.96644	11.1016
5.95958	11.0026
5.95274	11.0184
5.94591	11.1579
5.9391	11.5246
5.9323	11.537
5.92552	11.2427
5.91876	11.2613
5.91201	11.3786
5.90528	11.4352
5.89856	11.6133
5.89186	11.6248
5.88517	11.7114
5.8785	11.7347
5.87184	11.4244
5.8652	11.3533
5.85857	11.2396
5.85196	11.0846
5.84536	11.0137
5.83878	11.0559
5.83221	11.1761
5.82566	11.2423
5.81912	11.2318
5.81259	11.0081
5.80608	10.8703
5.79959	10.9391
5.79311	10.9966
5.78665	11.0251
5.78019	11.0789
5.77376	11.3321
5.76734	11.5459
5.76093	11.3679
5.75453	11.3894
5.74815	11.5305
5.74179	11.4693
5.73543	11.4278
5.7291	11.4073
5.72277	11.5043
5.71646	11.667
5.71017	11.7122
5.70389	11.5323
5.69762	11.4791
5.69136	11.6365
5.68513	11.7027
5.6789	11.7859
5.67268	11.8614
5.66648	11.8835
5.6603	12.0133
5.65413	12.1625
5.64797	12.3802
5.64182	12.6517
5.63569	12.604
5.62957	12.5238
5.62347	12.5724
5.61737	12.7202
5.61129	12.8539
5.60522	13.0463
5.59917	13.0325
5.59313	12.9247
5.5871	12.9743
5.58109	12.9945
5.57509	12.8275
5.5691	12.5808
5.56312	12.3911
5.55716	12.1191
5.55121	11.7838
5.54528	11.5001
5.53935	11.203
5.53344	10.8422
5.52754	10.4931
5.52166	10.12
5.51578	9.73416
5.50992	9.34917
5.50407	9.03545
5.49823	8.78197
5.49241	8.59934
5.4866	8.53115
5.4808	8.57738
5.47501	8.61633
5.46923	8.75219
5.46347	9.01458
5.45772	9.23718
5.45198	9.46033
5.44625	9.68605
5.44054	9.8947
5.43484	10.1353
5.42914	10.4607
5.42347	10.7283
5.4178	10.8312
5.41214	10.9173
5.4065	11.0862
5.40087	11.2311
5.39525	11.4207
5.38964	11.673
5.38404	11.9287
5.37846	12.166
5.37288	12.3984
5.36732	12.5715
5.36177	12.7786
5.35623	13.0644
5.35071	13.3263
5.34519	13.4581
5.33968	13.5618
5.33419	13.6738
5.32871	13.8032
5.32324	13.9062
5.31778	13.9258
5.31233	14.0148
5.30689	14.1108
5.30147	14.1679
5.29605	14.1914
5.29065	14.1953
5.28525	14.1355
5.27987	14.0265
5.2745	13.9827
5.26914	13.9278
5.26379	13.8434
5.25845	13.7045
5.25312	13.4971
5.24781	13.403
5.2425	13.2722
5.23721	13.1631
5.23192	13.0628
5.22665	12.9503
5.22138	12.8203
5.21613	12.8207
5.21089	12.8123
5.20566	12.7296
5.20044	12.5974
5.19522	12.5043
5.19002	12.526
5.18483	12.5488
5.17965	12.5723
5.17448	12.588
5.16933	12.6401
5.16418	12.6649
5.15904	12.6875
5.15391	12.9151
5.14879	13.2132
5.14368	13.392
5.13859	13.5278
5.1335	13.6519
5.12842	13.8306
5.12335	14.107
5.1183	14.37
5.11325	14.7066
5.10821	15.0792
5.10318	15.4386
5.09817	15.7657
5.09316	16.1277
5.08816	16.5689
5.08317	16.9743
5.07819	17.3145
5.07322	17.676
5.06826	18.1167
5.06331	18.6536
5.05837	19.0783
5.05344	19.48
5.04852	19.9081
5.04361	20.3584
5.03871	20.7788
5.03382	21.1677
5.02894	21.5503
5.02406	21.9548
5.0192	22.2772
5.01435	22.5742
5.0095	22.8883
5.00467	23.1752
4.99984	23.4248
4.99502	23.7304
4.99021	24.0892
4.98542	24.3599
4.98063	24.6221
4.97585	24.9861
4.97108	25.3241
4.96632	25.5195
4.96156	25.7299
4.95682	25.9944
4.95209	26.2724
4.94736	26.4492
4.94264	26.6196
4.93794	26.8306
4.93324	26.96
4.92855	27.1526
4.92387	27.3408
4.9192	27.4221
4.91453	27.5303
4.90988	27.6857
4.90524	27.8264
4.9006	27.9262
4.89597	28.1034
4.89135	28.2879
4.88674	28.4787
4.88214	28.6968
4.87755	28.8994
4.87296	29.1403
4.86839	29.4177
4.86382	29.6609
4.85926	29.8792
4.85471	30.0739
4.85017	30.2777
4.84564	30.4601
4.84111	30.6292
4.8366	30.8103
4.83209	31.0305
4.82759	31.3289
4.8231	31.603
4.81862	31.8486
4.81415	32.0363
4.80968	32.303
4.80522	32.6515
4.80077	32.8934
4.79633	32.9546
4.7919	33.0536
4.78747	33.2843
4.78306	33.5586
4.77865	33.8084
4.77425	33.9314
4.76986	34.0269
4.76547	34.1672
4.7611	34.278
4.75673	34.3785
4.75237	34.459
4.74802	34.5095
4.74367	34.5236
4.73934	34.6134
4.73501	34.6433
4.73069	34.6001
4.72638	34.622
4.72207	34.6663
4.71777	34.6591
4.71348	34.7168
4.7092	34.7145
4.70493	34.662
4.70066	34.6774
4.69641	34.6709
4.69216	34.6572
4.68791	34.6313
4.68368	34.6458
4.67945	34.7362
4.67523	34.8199
4.67102	34.9651
4.66682	35.0723
4.66262	35.2238
4.65843	35.3832
4.65425	35.569
4.65007	35.8137
4.64591	36.1277
4.64175	36.46
4.6376	36.855
4.63345	37.1611
4.62932	37.4265
4.62519	37.738
4.62106	38.148
4.61695	38.5469
4.61284	38.8831
4.60874	39.2368
4.60465	39.6113
4.60056	39.9134
4.59648	40.1409
4.59241	40.4024
4.58835	40.7244
4.58429	40.9567
4.58024	41.0962
4.5762	41.2627
4.57216	41.4832
4.56814	41.7075
4.56411	41.8479
4.5601	42.0244
4.55609	42.2355
4.55209	42.3516
4.5481	42.5469
4.54411	42.702
4.54013	42.72
4.53616	42.7397
4.5322	42.7836
4.52824	42.8656
4.52429	42.949
4.52034	42.9865
4.51641	42.9732
4.51247	42.9231
4.50855	42.9409
4.50463	43.0356
4.50072	43.149
4.49682	43.2113
4.49292	43.3319
4.48903	43.4131
4.48515	43.5186
4.48127	43.6838
4.4774	43.829
4.47354	43.9969
4.46968	44.1894
4.46584	44.3096
4.46199	44.4415
4.45815	44.5863
4.45432	44.709
4.4505	44.8192
4.44668	44.9245
4.44287	44.9946
4.43907	45.075
4.43527	45.1346
4.43148	45.1272
4.4277	45.1175
4.42392	45.1589
4.42015	45.2405
4.41638	45.2878
4.41262	45.3358
4.40887	45.3759
4.40513	45.466
4.40139	45.5809
4.39765	45.5696
4.39393	45.5457
4.39021	45.6113
4.38649	45.6877
4.38278	45.7523
4.37908	45.8084
4.37539	45.8215
4.3717	45.8444
4.36801	45.8951
4.36434	45.9439
4.36067	45.9756
4.357	46.0356
4.35335	46.0697
4.34969	46.1186
4.34605	46.1808
4.34241	46.2924
4.33877	46.4152
4.33514	46.4924
4.33152	46.5022
4.32791	46.523
4.3243	46.6016
4.32069	46.6761
4.3171	46.7432
4.31351	46.8456
4.30992	46.9026
4.30634	46.8848
4.30277	46.8711
4.2992	46.9807
4.29564	47.0544
4.29208	47.0663
4.28853	46.9999
4.28499	46.8952
4.28145	46.7614
4.27792	46.5104
4.27439	46.168
4.27087	45.8298
4.26735	45.6194
4.26384	45.7191
4.26034	45.9901
4.25684	46.3042
4.25335	46.6295
4.24986	46.9467
4.24638	47.1926
4.24291	47.3537
4.23944	47.5395
4.23598	47.677
4.23252	47.691
4.22906	47.7268
4.22562	47.7352
4.22218	47.7352
4.21874	47.7236
4.21531	47.6986
4.21189	47.644
4.20847	47.6106
4.20506	47.5362
4.20165	47.5387
4.19825	47.5889
4.19485	47.5441
4.19146	47.5116
4.18807	47.5314
4.18469	47.4897
4.18132	47.4606
4.17795	47.4799
4.17458	47.5409
4.17123	47.6203
4.16787	47.6788
4.16453	47.6637
4.16118	47.6242
4.15785	47.6964
4.15451	47.7192
4.15119	47.6472
4.14787	47.6685
4.14455	47.7153
4.14124	47.7281
4.13794	47.7223
4.13464	47.7766
4.13134	47.855
4.12805	47.894
4.12477	47.912
4.12149	47.9154
4.11822	47.9191
4.11495	47.8938
4.11168	47.9181
4.10843	47.9809
4.10517	48.0249
4.10192	48.0593
4.09868	48.0936
4.09545	48.0941
4.09221	48.059
4.08899	48.087
4.08576	48.212
4.08255	48.2754
4.07933	48.2484
4.07613	48.1798
4.07292	48.1462
4.06973	48.2389
4.06654	48.2334
4.06335	48.2176
4.06017	48.207
4.05699	48.167
4.05382	48.2285
4.05065	48.3333
4.04749	48.4263
4.04433	48.4157
4.04118	48.4065
4.03803	48.4082
4.03489	48.4096
4.03175	48.3786
4.02862	48.4433
4.02549	48.4745
4.02237	48.4627
4.01925	48.511
4.01614	48.5962
4.01303	48.6196
4.00993	48.5659
4.00683	48.5087
4.00373	48.5323
4.00064	48.5775
3.99756	48.6461
3.99448	48.6535
3.9914	48.5974
3.98833	48.559
3.98527	48.5963
3.98221	48.6669
3.97915	48.7495
3.9761	48.6851
3.97305	48.6327
3.97001	48.7173
3.96697	48.7376
3.96394	48.6919
3.96091	48.6725
3.95789	48.6634
3.95487	48.6818
3.95186	48.6245
3.94885	48.6038
3.94584	48.6475
3.94284	48.7234
3.93984	48.7051
3.93685	48.6239
3.93386	48.6567
3.93088	48.6492
3.9279	48.5976
3.92493	48.6158
3.92196	48.6186
3.919	48.5465
3.91604	48.5575
3.91308	48.58
3.91013	48.6191
3.90718	48.616
3.90424	48.5771
3.9013	48.5016
3.89837	48.4914
3.89544	48.5438
3.89252	48.5488
3.8896	48.4731
3.88668	48.4446
3.88377	48.4051
3.88086	48.3896
3.87796	48.3993
3.87506	48.3784
3.87217	48.3512
3.86928	48.366
3.86639	48.2845
3.86351	48.2385
3.86064	48.268
3.85776	48.2318
3.8549	48.0901
3.85203	47.9925
3.84917	47.9728
3.84631	47.951
3.84346	47.9168
3.84062	47.9026
3.83777	47.8732
3.83494	47.7803
3.8321	47.744
3.82927	47.739
3.82644	47.6802
3.82362	47.5778
3.82081	47.5565
3.81799	47.5117
3.81518	47.4356
3.81238	47.4253
3.80958	47.3421
3.80678	47.2666
3.80399	47.2118
3.8012	47.1448
3.79841	47.0672
3.79563	46.9676
3.79286	46.9097
3.79008	46.861
3.78731	46.7926
3.78455	46.6894
3.78179	46.5707
3.77903	46.5185
3.77628	46.4816
3.77353	46.3908
3.77079	46.2681
3.76805	46.1779
3.76531	46.1165
3.76258	46.0674
3.75985	46.0054
3.75713	45.9233
3.7544	45.8467
3.75169	45.6965
3.74898	45.4215
3.74627	44.9738
3.74356	44.6309
3.74086	44.6506
3.73816	44.7794
3.73547	44.9161
3.73278	44.8732
3.7301	44.7489
3.72741	44.5706
3.72474	44.3418
3.72206	44.1834
3.71939	43.991
3.71673	43.7726
3.71406	43.5835
3.71141	43.2253
3.70875	42.778
3.7061	42.3874
3.70345	42.1194
3.70081	42.0366
3.69817	41.9571
3.69553	41.8335
3.6929	41.8776
3.69027	41.9352
3.68765	41.9511
3.68503	42.028
3.68241	42.1168
3.6798	42.2272
3.67719	42.2784
3.67458	42.3999
3.67198	42.4993
3.66938	42.521
3.66678	42.4602
3.66419	42.4684
3.66161	42.4828
3.65902	42.4075
3.65644	42.3493
3.65387	42.3167
3.65129	42.2777
3.64872	42.1876
3.64616	42.1217
3.64359	42.1191
3.64103	42.0437
3.63848	41.9825
3.63593	41.8546
3.63338	41.6765
3.63084	41.6207
3.6283	41.6109
3.62576	41.579
3.62322	41.4455
3.62069	41.2983
3.61817	41.2675
3.61564	41.2049
3.61312	41.1169
3.61061	40.9667
3.6081	40.7779
3.60559	40.6193
3.60308	40.6157
3.60058	40.6243
3.59808	40.4517
3.59558	40.2346
3.59309	40.1333
3.59061	40.0417
3.58812	39.9205
3.58564	39.7516
3.58316	39.5062
3.58069	39.2762
3.57822	39.1018
3.57575	38.9201
3.57328	38.7439
3.57082	38.6758
3.56836	38.6813
3.56591	38.6811
3.56346	38.7055
3.56101	38.8308
3.55857	38.8398
3.55613	38.7214
3.55369	38.6458
3.55126	38.6299
3.54883	38.5524
3.5464	38.5083
3.54397	38.3919
3.54155	38.2558
3.53914	38.2717
3.53672	38.1444
3.53431	37.9391
3.5319	37.8267
3.5295	37.6926
3.5271	37.5607
3.5247	37.5183
3.52231	37.3941
3.51991	37.2339
3.51753	37.0426
3.51514	36.8287
3.51276	36.7277
3.51038	36.6652
3.50801	36.5503
3.50563	36.3755
3.50327	36.1733
3.5009	36.09
3.49854	36.083
3.49618	36.117
3.49382	36.0795
3.49147	35.8771
3.48912	35.7701
3.48677	35.8008
3.48443	35.7377
3.48209	35.6182
3.47975	35.5383
3.47742	35.4297
3.47509	35.3251
3.47276	35.2412
3.47044	35.1278
3.46812	35.054
3.4658	34.9984
3.46348	34.8895
3.46117	34.8279
3.45886	34.6874
3.45656	34.5356
3.45425	34.4305
3.45195	34.3336
3.44966	34.2204
3.44736	34.1823
3.44507	34.0399
3.44279	33.9025
3.4405	33.6981
3.43822	33.449
3.43594	33.2744
3.43367	33.1867
3.43139	33.1589
3.42912	32.9922
3.42686	32.8611
3.42459	32.7446
3.42233	32.5948
3.42007	32.3907
3.41782	32.2431
3.41557	32.1633
3.41332	32.0811
3.41108	32.0112
3.40883	31.9375
3.40659	31.8957
3.40435	31.8639
3.40212	31.8678
3.39989	31.8568
3.39766	31.7946
3.39544	31.7492
3.39322	31.6367
3.391	31.4881
3.38878	31.4371
3.38657	31.4083
3.38436	31.319
3.38215	31.1452
3.37994	31.078
3.37774	31.1196
3.37554	31.0744
3.37335	31.0168
3.37115	30.9623
3.36896	30.7729
3.36678	30.5994
3.36459	30.5668
3.36241	30.6126
3.36023	30.5271
3.35805	30.3722
3.35588	30.2819
3.35371	30.2676
3.35154	30.2538
3.34938	30.1502
3.34721	30.0224
3.34505	29.984
3.3429	29.9432
3.34074	29.8196
3.33859	29.7033
3.33644	29.647
3.3343	29.5756
3.33215	29.4481
3.33001	29.3734
3.32788	29.3744
3.32574	29.3088
3.32361	29.1637
3.32148	28.9959
3.31936	28.8405
3.31723	28.7964
3.31511	28.7861
3.31299	28.7711
3.31088	28.6663
3.30876	28.565
3.30665	28.5609
3.30455	28.5208
3.30244	28.3705
3.30034	28.2449
3.29824	28.1649
3.29614	28.1105
3.29405	28.0224
3.29196	27.9417
3.28987	27.8289
3.28778	27.7383
3.2857	27.5796
3.28362	27.552
3.28154	27.6341
3.27946	27.5501
3.27739	27.4267
3.27532	27.3843
3.27325	27.2537
3.27119	27.1864
3.26913	27.0686
3.26707	27.0046
3.26501	27.0403
3.26295	26.9623
3.2609	26.7784
3.25885	26.6732
3.2568	26.6722
3.25476	26.5857
3.25272	26.5284
3.25068	26.494
3.24864	26.4608
3.24661	26.3908
3.24458	26.2946
3.24255	26.2288
3.24052	26.1488
3.2385	25.9795
3.23648	25.8755
3.23446	25.7975
3.23244	25.7714
3.23043	25.6904
3.22841	25.6105
3.2264	25.5602
3.2244	25.5273
3.22239	25.532
3.22039	25.4144
3.21839	25.2063
3.2164	25.158
3.2144	25.1659
3.21241	25.0188
3.21042	24.9983
3.20844	25.0317
3.20645	24.8871
3.20447	24.8241
3.20249	24.7399
3.20051	24.6253
3.19854	24.5609
3.19657	24.5939
3.1946	24.6063
3.19263	24.4827
3.19067	24.3561
3.1887	24.2115
3.18674	24.1495
3.18479	24.1922
3.18283	24.2042
3.18088	24.0585
3.17893	23.8857
3.17698	23.8084
3.17504	23.7889
3.17309	23.7635
3.17115	23.7186
3.16921	23.7166
3.16728	23.6275
3.16534	23.5358
3.16341	23.4522
3.16148	23.5086
3.15956	23.4372
3.15763	23.2551
3.15571	23.1438
3.15379	23.0986
3.15187	23.1274
3.14996	23.164
3.14805	23.0855
3.14614	22.8996
3.14423	22.7796
3.14232	22.6994
3.14042	22.561
3.13852	22.5543
3.13662	22.5623
3.13472	22.4738
3.13283	22.4414
3.13094	22.5018
3.12905	22.415
3.12716	22.2728
3.12528	22.1363
3.12339	22.1025
3.12151	22.194
3.11964	22.0899
3.11776	21.8958
3.11589	21.8843
3.11401	21.8971
3.11214	21.8336
3.11028	21.7882
3.10841	21.6492
3.10655	21.503
3.10469	21.4735
3.10283	21.4454
3.10098	21.4213
3.09912	21.4742
3.09727	21.4387
3.09542	21.413
3.09358	21.3398
3.09173	21.2707
3.08989	21.2043
3.08805	21.1864
3.08621	21.1632
3.08437	21.0374
3.08254	20.9682
3.08071	21.0347
3.07888	20.9938
3.07705	20.8369
3.07523	20.8417
3.0734	20.887
3.07158	20.775
3.06977	20.6857
3.06795	20.6128
3.06613	20.4975
3.06432	20.4656
3.06251	20.5093
3.0607	20.5052
3.0589	20.3918
3.0571	20.2833
3.05529	20.215
3.05349	20.2314
3.0517	20.1942
3.0499	20.1071
3.04811	20.0281
3.04632	19.9612
3.04453	19.7933
3.04274	19.7785
3.04096	19.799
3.03918	19.801
3.0374	19.6482
3.03562	19.5153
3.03384	19.5637
3.03207	19.5228
3.03029	19.4333
3.02852	19.3446
3.02676	19.2671
3.02499	19.1854
3.02323	19.1173
3.02146	19.145
3.0197	19.1603
3.01795	19.1005
3.01619	19.07
3.01444	18.9881
3.01269	18.9225
3.01094	18.8941
3.00919	18.6715
3.00744	18.5241
3.0057	18.5168
3.00396	18.4966
3.00222	18.4091
3.00048	18.2361
2.99875	18.1795
2.99701	18.1618
2.99528	18.0906
2.99355	18.0457
2.99183	17.979
2.9901	17.8655
2.98838	17.7582
2.98666	17.5912
2.98494	17.6219
2.98322	17.6169
2.9815	17.4024
2.97979	17.306
2.97808	17.2863
2.97637	17.2213
2.97466	17.1952
2.97295	17.1966
2.97125	17.0802
2.96955	16.9378
2.96785	16.8516
2.96615	16.9029
2.96446	16.9703
2.96276	16.9591
2.96107	16.8411
2.95938	16.6643
2.95769	16.6198
2.95601	16.6595
2.95432	16.657
2.95264	16.5451
2.95096	16.432
2.94928	16.4529
2.9476	16.3401
2.94593	16.2657
2.94425	16.2364
2.94258	16.18
2.94092	16.1614
2.93925	16.0299
2.93758	15.8598
2.93592	15.6721
2.93426	15.4742
2.9326	15.4928
2.93094	15.3917
2.92928	15.1714
2.92763	14.9456
2.92598	14.8003
2.92433	14.7891
2.92268	14.6155
2.92103	14.1873
2.91939	13.6854
2.91775	13.219
2.9161	12.6959
2.91447	12.3407
2.91283	11.9337
2.91119	11.6853
2.90956	12.0139
2.90793	12.3464
2.9063	12.5099
2.90467	12.7051
2.90304	13.06
2.90142	13.3792
2.89979	13.4672
2.89817	13.4799
2.89656	13.5819
2.89494	13.507
2.89332	13.4114
2.89171	13.3347
2.8901	13.3538
2.88849	13.4164
2.88688	13.3192
2.88527	13.2864
2.88367	13.2051
2.88206	13.088
2.88046	13.012
2.87886	12.9509
2.87727	12.9092
2.87567	12.9742
2.87408	12.8975
2.87248	12.7293
2.87089	12.787
2.8693	12.8055
2.86772	12.6868
2.86613	12.574
2.86455	12.4607
2.86297	12.4324
2.86139	12.4875
2.85981	12.4452
2.85823	12.1828
2.85666	12.0856
2.85508	12.087
2.85351	12.2078
2.85194	12.1883
2.85038	12.1115
2.84881	12.0076
2.84724	11.9227
2.84568	11.8374
2.84412	11.772
2.84256	11.7655
2.841	11.7457
2.83945	11.5161
2.83789	11.3365
2.83634	11.301
2.83479	11.0498
2.83324	10.8935
2.83169	11.0017
2.83015	11.0911
2.82861	11.142
2.82706	11.1389
2.82552	10.8831
2.82398	10.543
2.82245	10.5067
2.82091	10.5682
2.81938	10.409
2.81784	10.2205
2.81631	10.2022
2.81479	10.2431
2.81326	10.3101
2.81173	10.0945
2.81021	9.84885
2.80869	9.75029
2.80716	9.55198
2.80565	9.39053
2.80413	9.393
2.80261	9.373
2.8011	9.12971
2.79959	8.80476
2.79808	8.66528
2.79657	8.54733
2.79506	8.33003
2.79355	8.12142
2.79205	7.913
2.79055	7.72092
2.78904	7.54139
2.78754	7.50456
2.78605	7.24182
2.78455	6.72609
2.78306	6.21696
2.78156	5.84885
2.78007	5.51614
2.77858	5.26324
2.77709	5.28234
2.77561	5.22139
2.77412	5.10978
2.77264	4.77299
2.77116	4.176
2.76968	3.52389
2.7682	2.98883
2.76672	2.43404
2.76524	1.77599
2.76377	1.25173
2.7623	0.962638
2.76083	0.895372
2.75936	0.940431
2.75789	0.970135
2.75642	1.24443
2.75496	1.5509
2.7535	1.80325
2.75203	2.0257
2.75057	2.00018
2.74912	1.85937
2.74766	1.73808
2.7462	1.675
2.74475	1.63919
2.7433	1.48531
2.74185	1.38084
2.7404	1.24862
2.73895	1.12913
2.7375	1.11069
2.73606	1.34756
2.73462	1.26378
2.73318	1.09295
2.73174	1.2526
2.7303	1.33084
2.72886	1.26085
2.72742	1.32011
2.72599	1.36503
2.72456	1.34929
2.72313	1.2024
2.7217	1.2179
2.72027	1.42059
2.71884	1.66208
2.71742	1.75637
2.71599	1.60613
2.71457	1.39892
2.71315	1.30152
2.71173	1.26598
2.71032	1.21319
2.7089	1.06693
2.70748	0.854113
2.70607	0.751335
2.70466	0.757556
2.70325	0.683713
2.70184	0.741023
2.70043	0.973922
2.69903	1.15535
2.69762	1.54549
2.69622	2.05349
2.69482	2.49622
2.69342	2.89214
2.69202	3.38091
2.69062	4.17148
2.68923	5.16131
2.68783	5.98242
2.68644	6.74256
2.68505	7.60409
2.68366	8.64895
2.68227	9.45481
2.68089	10.3408
2.6795	11.5162
2.67812	12.355
2.67673	13.2088
2.67535	14.0731
2.67397	14.784
2.6726	15.5761
2.67122	16.8457
2.66984	17.7341
2.66847	18.1796
2.6671	19.112
2.66572	20.0323
2.66435	20.4279
2.66299	20.6868
2.66162	21.3474
2.66025	21.9013
2.65889	22.3308
2.65753	22.8755
2.65616	23.511
2.65481	23.9723
2.65345	24.4399
2.65209	24.7914
2.65073	25.0642
2.64938	25.5136
2.64803	25.9761
2.64667	26.4399
2.64532	26.7776
2.64397	26.9161
2.64263	27.2642
2.64128	27.635
2.63994	27.9717
2.63859	28.2512
2.63725	28.5847
2.63591	29.0491
2.63457	29.4586
2.63323	29.6914
2.6319	30.1244
2.63056	30.8524
2.62923	30.8425
2.62789	30.922
2.62656	31.3996
2.62523	31.5005
2.6239	31.5848
2.62258	31.8409
2.62125	32.6337
2.61993	32.9974
2.6186	32.7261
2.61728	33.0481
2.61596	33.0152
2.61464	32.8427
2.61332	33.0048
2.61201	33.0147
2.61069	33.125
2.60938	33.3378
2.60807	33.5439
2.60675	33.9007
2.60544	34.2225
2.60414	34.1353
2.60283	34.1565
2.60152	34.0199
2.60022	33.866
2.59891	33.925
2.59761	34.2551
2.59631	34.9592
2.59501	35.7532
2.59371	35.3435
2.59242	34.5088
2.59112	34.3046
2.58983	34.5201
2.58853	34.8672
2.58724	35.133
2.58595	35.0221
2.58466	35.4811
2.58338	35.7642
2.58209	35.5127
2.5808	35.5201
2.57952	35.3796
2.57824	35.5536
2.57695	35.8361
2.57567	35.8808
2.5744	36.1095
2.57312	36.3162
2.57184	36.1055
2.57057	36.3505
2.56929	36.6625
2.56802	36.5422
2.56675	36.6353
2.56548	36.9399
2.56421	37.3773
2.56294	37.6711
2.56168	37.9873
2.56041	37.9524
2.55915	37.7887
2.55789	37.8673
2.55662	38.0149
2.55536	38.1267
2.5541	38.2422
2.55285	38.4225
2.55159	38.499
2.55034	38.5882
2.54908	38.6575
2.54783	38.5388
2.54658	38.4797
2.54533	38.5104
2.54408	38.4986
2.54283	38.5008
2.54159	38.5651
2.54034	38.7408
2.5391	38.8404
2.53785	38.9827
2.53661	39.1397
2.53537	39.1518
2.53413	39.2232
2.53289	39.3196
2.53166	39.3561
2.53042	39.3929
2.52919	39.4634
2.52795	39.5286
2.52672	39.6432
2.52549	39.708
2.52426	39.8583
2.52303	40.0692
2.52181	40.1576
2.52058	40.2053
2.51936	40.3463
2.51813	40.477
2.51691	40.5012
2.51569	40.522
2.51447	40.4952
2.51325	40.4711
2.51203	40.6302
2.51082	40.7994
2.5096	40.8957
2.50839	41.0165
2.50717	41.2187
2.50596	41.348
2.50475	41.3707
2.50354	41.4716
2.50233	41.5753
2.50113	41.6035
2.49992	41.7076
2.49872	41.7943
2.49751	41.7979
2.49631	41.8183
2.49511	41.977
2.49391	41.9986
2.49271	41.7911
2.49151	41.7599
2.49031	41.917
2.48912	42.1721
2.48792	42.3355
2.48673	42.3395
2.48554	42.5257
2.48435	42.7898
2.48316	42.9916
2.48197	43.2334
2.48078	43.4657
2.4796	43.7371
2.47841	43.9694
2.47723	44.0782
2.47604	44.1527
2.47486	44.3298
2.47368	44.5106
2.4725	44.6181
2.47132	44.7751
2.47014	44.8162
2.46897	44.7925
2.46779	44.9538
2.46662	45.1607
2.46545	45.2143
2.46427	45.1147
2.4631	45.0518
2.46193	45.2135
2.46077	45.4484
2.4596	45.514
2.45843	45.4789
2.45727	45.5582
2.4561	45.6608
2.45494	45.7749
2.45378	45.8666
2.45262	45.9601
2.45146	45.9855
2.4503	45.9688
2.44914	46.0559
2.44799	46.2809
2.44683	46.3309
2.44568	46.3136
2.44452	46.4811
2.44337	46.7422
2.44222	46.7872
2.44107	46.8034
2.43992	47.052
2.43877	47.3644
2.43763	47.7246
2.43648	47.9752
2.43534	48.2588
2.43419	48.6015
2.43305	48.8897
2.43191	49.3559
2.43077	49.6528
2.42963	49.9172
2.42849	50.2567
2.42736	50.3445
2.42622	50.499
2.42509	50.6874
2.42395	50.7982
2.42282	50.9931
2.42169	51.1518
2.42056	51.3404
2.41943	51.5214
2.4183	51.6535
2.41717	51.7604
2.41605	51.8698
2.41492	51.8743
2.4138	51.9561
2.41267	52.1695
2.41155	52.2433
2.41043	52.214
2.40931	52.3087
2.40819	52.3504
2.40707	52.4433
2.40595	52.4571
2.40484	52.4614
2.40372	52.4175
2.40261	52.3388
2.4015	52.1266
2.40039	51.8898
2.39928	51.7495
2.39817	51.6888
2.39706	51.5482
2.39595	51.3009
2.39484	51.0116
2.39374	50.838
2.39263	50.6308
2.39153	50.4128
2.39043	50.2058
2.38932	49.966
2.38822	49.6408
2.38712	49.3472
2.38603	49.2894
2.38493	49.2797
2.38383	49.2695
2.38274	49.2781
2.38164	49.3042
2.38055	49.5782
2.37946	49.9492
2.37836	50.221
2.37727	50.5316
2.37618	50.7025
2.3751	51.0449
2.37401	51.473
2.37292	51.8099
2.37184	52.0146
2.37075	52.2265
2.36967	52.5233
2.36859	52.6774
2.3675	52.7125
2.36642	52.7981
2.36534	52.9228
2.36427	52.8859
2.36319	52.7801
2.36211	52.6055
2.36104	52.5098
2.35996	52.4584
2.35889	52.4039
2.35781	52.4679
2.35674	52.6796
2.35567	52.8096
2.3546	52.8492
2.35353	52.9374
2.35247	53.0696
2.3514	53.2953
2.35033	53.6488
2.34927	53.9651
2.3482	54.2028
2.34714	54.5235
2.34608	54.8022
2.34502	55.022
2.34396	55.3697
2.3429	55.6953
2.34184	56.0481
2.34078	56.2417
2.33973	56.3623
2.33867	56.3639
2.33762	56.4194
2.33656	56.4281
2.33551	56.4076
2.33446	56.3781
2.33341	56.3463
2.33236	56.232
2.33131	56.1318
2.33026	56.0207
2.32922	55.8234
2.32817	55.7381
2.32712	55.7888
2.32608	55.876
2.32504	56.0087
2.324	56.1165
2.32295	56.0597
2.32191	56.051
2.32087	56.1891
2.31984	56.2157
2.3188	56.2789
2.31776	56.2768
2.31673	56.2142
2.31569	56.3354
2.31466	56.4688
2.31362	56.4868
2.31259	56.5174
2.31156	56.8516
2.31053	57.2289
2.3095	57.3395
2.30847	57.4695
2.30745	57.8282
2.30642	58.0657
2.3054	58.19
2.30437	58.4866
2.30335	58.7493
2.30232	58.9788
2.3013	59.1512
2.30028	59.2467
2.29926	59.4501
2.29824	59.6698
2.29722	59.8866
2.29621	59.9724
2.29519	59.9143
2.29417	60.0412
2.29316	60.3264
2.29215	60.6046
2.29113	60.6906
2.29012	60.8624
2.28911	60.9803
2.2881	61.1017
2.28709	61.2352
2.28608	61.326
2.28507	61.5596
2.28407	61.79
2.28306	62.037
2.28206	62.1304
2.28105	62.1504
2.28005	62.2814
2.27905	62.5753
2.27805	62.73
2.27705	62.7435
2.27605	62.9036
2.27505	63.167
2.27405	63.356
2.27305	63.5432
2.27206	63.6545
2.27106	63.6752
2.27007	63.8849
2.26907	64.0363
2.26808	64.1235
2.26709	64.1956
2.2661	64.3247
2.26511	64.4916
2.26412	64.5746
2.26313	64.6275
2.26214	64.7058
2.26116	64.6622
2.26017	64.5896
2.25919	64.7711
2.2582	64.9276
2.25722	64.8411
2.25624	64.9077
2.25526	65.0139
2.25428	65.1314
2.2533	65.2726
2.25232	65.3518
2.25134	65.5241
2.25036	65.5182
2.24939	65.4455
2.24841	65.3753
2.24744	65.2743
2.24646	65.1727
2.24549	64.984
2.24452	64.9164
2.24355	64.7629
2.24257	64.3931
2.24161	64.2498
2.24064	64.3407
2.23967	64.322
2.2387	64.2081
2.23774	64.3344
2.23677	64.6071
2.23581	64.7432
2.23484	64.7002
2.23388	64.8049
2.23292	64.9098
2.23196	64.8674
2.231	64.9505
2.23004	64.8932
2.22908	64.7064
2.22812	64.5437
2.22716	64.3729
2.22621	64.1714
2.22525	63.7587
2.2243	63.1908
2.22334	62.554
2.22239	62.0108
2.22144	61.594
2.22049	60.9081
2.21953	59.8933
2.21859	58.8696
2.21764	57.5896
2.21669	56.0762
2.21574	54.369
2.21479	52.4412
2.21385	50.0541
2.2129	47.4772
2.21196	44.9284
2.21102	42.3831
2.21007	40.3454
2.20913	39.5419
2.20819	39.8267
2.20725	40.7979
2.20631	42.2668
2.20537	44.0659
2.20444	45.807
2.2035	47.4169
2.20256	48.8217
2.20163	49.8245
2.20069	50.6088
2.19976	51.1755
2.19883	51.5025
2.19789	51.7035
2.19696	52.0361
2.19603	52.2226
2.1951	52.2447
2.19417	52.2718
2.19325	52.3705
2.19232	52.5014
2.19139	52.6466
2.19047	52.9476
2.18954	53.3666
2.18862	53.5681
2.18769	53.7274
2.18677	53.9629
2.18585	54.0741
2.18493	54.005
2.18401	54.0098
2.18309	54.1278
2.18217	54.2022
2.18125	54.1372
2.18033	54.1033
2.17942	54.1192
2.1785	54.1376
2.17759	54.2103
2.17667	54.2925
2.17576	54.2726
2.17485	54.2502
2.17393	54.3153
2.17302	54.2584
2.17211	54.1376
2.1712	54.2127
2.17029	54.3271
2.16939	54.3645
2.16848	54.2144
2.16757	54.1414
2.16667	54.2852
2.16576	54.3141
2.16486	54.1752
2.16395	54.1169
2.16305	54.1373
2.16215	54.2758
2.16125	54.3726
2.16035	54.438
2.15945	54.7009
2.15855	55.1794
2.15765	55.6742
2.15675	56.1437
2.15586	56.5803
2.15496	57.0142
2.15406	57.4108
2.15317	57.8679
2.15228	58.5045
2.15138	59.1782
2.15049	59.8766
2.1496	60.7113
2.14871	61.6019
2.14782	62.4233
2.14693	63.0706
2.14604	63.8678
2.14515	64.7972
2.14427	65.4537
2.14338	65.8999
2.14249	66.5568
2.14161	67.2577
2.14072	67.6847
2.13984	68.1811
2.13896	68.7871
2.13808	69.2033
2.13719	69.6262
2.13631	69.8842
2.13543	70.1253
2.13455	70.5712
2.13368	70.9621
2.1328	71.271
2.13192	71.5229
2.13105	71.6071
2.13017	71.8766
2.1293	72.1604
2.12842	72.388
2.12755	72.5101
2.12668	72.5905
2.1258	72.6073
2.12493	72.8173
2.12406	73.08
2.12319	73.2347
2.12232	73.3936
2.12145	73.4753
2.12059	73.5014
2.11972	73.4511
2.11885	73.4876
2.11799	73.5496
2.11712	73.4424
2.11626	73.2284
2.1154	73.0284
2.11453	73.0294
2.11367	73.225
2.11281	73.4748
2.11195	73.6905
2.11109	73.9201
2.11023	74.0617
2.10937	74.1988
2.10851	74.6414
2.10766	74.9482
2.1068	75.3867
2.10594	75.7611
2.10509	75.8611
2.10423	75.8618
2.10338	76.1473
2.10253	76.2845
2.10168	76.2119
2.10082	76.1194
2.09997	76.2387
2.09912	76.4248
2.09827	76.4072
2.09742	76.5101
2.09658	76.668
2.09573	76.7069
2.09488	76.689
2.09404	76.5966
2.09319	76.6473
2.09235	76.832
2.0915	76.706
2.09066	76.575
2.08982	76.6523
2.08897	76.8414
2.08813	77.2115
2.08729	77.3464
2.08645	77.2845
2.08561	77.3232
2.08477	77.5697
2.08394	77.5446
2.0831	77.681
2.08226	77.9718
2.08143	77.9119
2.08059	77.9707
2.07976	78.3906
2.07892	78.4055
2.07809	78.2453
2.07726	78.594
2.07643	78.8864
2.07559	79.0832
2.07476	79.1984
2.07393	79.095
2.0731	78.9127
2.07228	78.7934
2.07145	79.0298
2.07062	79.246
2.06979	79.3783
2.06897	79.4614
2.06814	79.5191
2.06732	79.7699
2.06649	79.9001
2.06567	79.7005
2.06485	79.8721
2.06403	80.0781
2.0632	80.2183
2.06238	80.4678
2.06156	80.2607
2.06074	80.0509
2.05993	80.0894
2.05911	80.2858
2.05829	80.4882
2.05747	80.5394
2.05666	80.4813
2.05584	80.5948
2.05503	80.6242
2.05421	80.7719
2.0534	80.9344
2.05259	80.9382
2.05177	80.8394
2.05096	80.9946
2.05015	80.9049
2.04934	80.9545
2.04853	81.1143
2.04772	81.2371
2.04691	81.1221
2.04611	81.1779
2.0453	81.2806
2.04449	81.2568
2.04369	81.3166
2.04288	81.4248
2.04208	81.4488
2.04127	81.4285
2.04047	81.4119
2.03967	81.4486
2.03886	81.3904
2.03806	81.5594
2.03726	81.7046
2.03646	81.559
2.03566	81.6216
2.03486	81.6928
2.03407	81.4536
2.03327	81.7596
2.03247	82.3081
2.03167	82.355
2.03088	82.0819
2.03008	81.9593
2.02929	81.8044
2.0285	81.7547
2.0277	82.0281
2.02691	82.0391
2.02612	82.0992
2.02533	82.0883
2.02453	81.895
2.02374	82.0194
2.02295	82.2843
2.02217	82.5033
2.02138	82.4507
2.02059	82.1725
2.0198	82.1945
2.01902	82.2218
2.01823	82.2923
2.01744	82.4237
2.01666	82.4411
2.01588	82.4426
2.01509	82.4085
2.01431	82.4428
2.01353	82.5602
2.01275	82.5537
2.01196	82.3731
2.01118	82.4255
2.0104	82.4835
2.00963	82.6163
2.00885	82.6973
2.00807	82.6498
2.00729	82.6131
2.00651	82.7216
2.00574	82.7036
2.00496	82.6411
2.00419	82.4746
2.00341	82.5902
2.00264	82.6285
2.00187	82.4946
2.00109	82.6988
2.00032	82.9572
