Name: Orthoclase (Feldspar) (K,Na)AlSi_3O_8
Type: Mineral
Class: Silicates
Subclass: Tectosilicates
Particle Size: 125-500um
Sample No.: TS-12A
Owner: JPL
Wavelength range: IR
Origin: India
Collected by Burminco
Description:   





Measurement: Hemispherical reflectance
First Column: X
Second Column: Y
X Units:  Wavelength (micrometers)
Y Units:  Reflectance (percent)
First X Value: 15.3853
Last X Value: 2.00032
Number of X Values: 2256
Additional information: ts12aa.txt
 
15.3853	2.63913
15.3397	2.38088
15.2945	2.2809
15.2495	2.17934
15.2048	1.85996
15.1603	1.54438
15.1161	1.32795
15.0722	1.46793
15.0285	1.78095
14.9851	1.73996
14.9419	1.68383
14.8989	1.70895
14.8563	1.8278
14.8138	1.71071
14.7716	1.6735
14.7296	1.78522
14.6879	1.91047
14.6464	2.11182
14.6052	2.13456
14.5641	1.98744
14.5233	2.00066
14.4828	2.23819
14.4424	2.39848
14.4023	2.43061
14.3624	2.57743
14.3227	2.65591
14.2833	2.50729
14.244	2.5549
14.205	2.79219
14.1662	2.96501
14.1276	3.10785
14.0892	3.04795
14.051	3.14392
14.0131	3.08723
13.9753	2.91511
13.9377	2.96743
13.9004	3.15898
13.8632	3.2763
13.8262	3.3024
13.7895	3.1803
13.7529	2.93459
13.7165	2.67023
13.6803	2.59562
13.6443	2.6944
13.6085	2.80612
13.5729	2.90061
13.5374	2.8959
13.5022	2.7399
13.4671	2.67758
13.4322	2.61919
13.3975	2.74344
13.363	2.73462
13.3286	2.53257
13.2944	2.46066
13.2604	2.71855
13.2266	2.70279
13.193	2.61609
13.1595	2.7966
13.1262	2.90289
13.093	2.78567
13.06	2.70938
13.0272	2.49678
12.9946	2.35115
12.9621	2.37362
12.9298	2.48053
12.8976	2.53022
12.8656	2.41741
12.8337	2.26051
12.8021	2.29869
12.7705	2.25729
12.7391	2.2588
12.7079	2.19782
12.6769	2.17738
12.6459	2.15046
12.6152	2.07233
12.5845	2.06803
12.5541	1.98515
12.5238	1.88636
12.4936	1.96575
12.4635	1.93934
12.4337	1.79746
12.4039	1.93211
12.3743	2.02179
12.3448	1.9828
12.3155	2.0524
12.2863	2.19904
12.2573	2.42193
12.2284	2.53502
12.1996	2.48195
12.171	2.5115
12.1425	2.6918
12.1141	2.8331
12.0859	2.79442
12.0578	2.82786
12.0298	2.94442
12.0019	3.02416
11.9742	3.12401
11.9466	3.18509
11.9192	3.18408
11.8918	3.16127
11.8646	3.15761
11.8375	3.21812
11.8106	3.30355
11.7837	3.33966
11.757	3.36777
11.7304	3.38567
11.7039	3.43257
11.6776	3.40322
11.6513	3.40959
11.6252	3.64028
11.5992	3.77799
11.5733	3.84241
11.5475	3.85395
11.5219	3.82496
11.4963	3.76056
11.4709	3.73567
11.4455	3.95608
11.4203	4.10752
11.3952	4.09175
11.3702	4.08227
11.3454	4.13508
11.3206	4.15513
11.2959	4.10641
11.2714	4.29801
11.2469	4.49577
11.2226	4.43024
11.1983	4.4065
11.1742	4.48519
11.1502	4.52589
11.1263	4.65742
11.1024	4.8595
11.0787	4.9579
11.0551	5.01463
11.0316	5.16767
11.0081	5.16056
10.9848	5.02988
10.9616	5.0302
10.9385	5.29455
10.9154	5.52358
10.8925	5.49068
10.8697	5.44806
10.8469	5.5148
10.8243	5.60109
10.8017	5.79089
10.7793	5.90505
10.7569	6.12884
10.7346	6.20782
10.7125	6.15013
10.6904	6.25627
10.6684	6.53834
10.6465	6.70027
10.6247	6.90777
10.6029	7.05812
10.5813	7.19609
10.5597	7.43485
10.5383	7.56257
10.5169	7.55832
10.4956	7.73011
10.4744	8.1183
10.4533	8.46163
10.4323	8.68452
10.4113	8.83969
10.3904	9.06003
10.3697	9.36247
10.349	9.64603
10.3284	9.89247
10.3078	10.2121
10.2874	10.5369
10.267	10.8283
10.2467	11.1512
10.2265	11.431
10.2064	11.7836
10.1863	12.1475
10.1663	12.5248
10.1464	12.8945
10.1266	13.2474
10.1069	13.5801
10.0872	13.997
10.0676	14.3903
10.0481	14.6994
10.0287	15.0104
10.0093	15.459
9.99005	15.8808
9.97084	16.2151
9.95169	16.5695
9.93263	16.8638
9.91364	17.1431
9.89472	17.4387
9.87587	17.6002
9.8571	17.7036
9.83839	17.8886
9.81976	18.2089
9.80119	18.4269
9.78271	18.4246
9.76428	18.5559
9.74592	18.7049
9.72764	19.027
9.70943	19.3865
9.69128	19.6064
9.6732	19.8282
9.65518	20.1462
9.63724	20.4759
9.61935	20.6262
9.60155	20.7853
9.5838	20.9177
9.56611	21.0039
9.5485	21.0597
9.53094	21.1301
9.51345	21.0595
9.49604	20.8538
9.47867	20.5676
9.46137	20.3808
9.44414	19.9791
9.42697	19.1063
9.40986	18.0904
9.39281	17.0675
9.37583	16.1671
9.35891	15.3897
9.34204	14.7275
9.32524	14.0238
9.3085	13.316
9.29182	12.9404
9.27519	12.7483
9.25863	12.5811
9.24213	12.4525
9.22568	12.3343
9.2093	12.2399
9.19297	12.3185
9.17669	12.4494
9.16048	12.4641
9.14433	12.3561
9.12823	12.2625
9.11218	12.1399
9.0962	12.0792
9.08027	12.0347
9.06439	11.9922
9.04858	12.0177
9.03281	11.9853
9.0171	12.008
9.00145	12.0269
8.98585	12.0061
8.9703	11.9424
8.9548	12.0587
8.93937	12.2014
8.92398	12.388
8.90865	12.7449
8.89337	13.2075
8.87814	13.5805
8.86296	13.9009
8.84784	14.0984
8.83277	14.3465
8.81774	14.6932
8.80277	15.0282
8.78786	15.1569
8.77298	15.3087
8.75816	15.5123
8.7434	15.4588
8.72868	15.5603
8.714	15.7371
8.69938	15.6109
8.68481	15.3422
8.67029	15.2497
8.65581	15.3018
8.64139	15.1802
8.62701	15.1134
8.61268	14.9644
8.5984	14.8059
8.58416	14.7384
8.56997	14.807
8.55583	14.819
8.54174	14.6365
8.52769	14.3959
8.51368	14.2191
8.49973	14.0417
8.48582	13.8674
8.47195	13.6435
8.45813	13.4059
8.44436	13.0919
8.43062	12.6747
8.41693	12.244
8.4033	11.9047
8.3897	11.52
8.37614	10.9408
8.36264	10.4238
8.34917	9.98531
8.33574	9.41027
8.32236	8.75364
8.30903	8.09197
8.29573	7.42925
8.28248	6.74341
8.26927	6.04619
8.2561	5.44683
8.24298	5.06888
8.2299	4.53029
8.21685	3.87256
8.20385	3.34233
8.19089	2.99835
8.17797	2.61637
8.16509	2.20101
8.15225	1.89934
8.13946	1.63459
8.1267	1.36303
8.11398	1.15889
8.10131	0.913889
8.08867	0.708226
8.07606	0.711904
8.0635	0.703563
8.05099	0.653456
8.0385	0.537846
8.02606	0.541136
8.01366	0.480917
8.00129	0.415232
7.98896	0.403807
7.97667	0.280587
7.96442	0.290477
7.9522	0.163349
7.94002	0.12768
7.92788	0.122566
7.91578	0.0931262
7.90371	0.0935606
7.89168	0.113183
7.87969	0.105832
7.86773	0.0162147
7.85581	0.0372597
7.84392	0.107494
7.83207	0.089951
7.82026	0.0832201
7.80849	0.0579103
7.79674	0.131283
7.78503	0.181206
7.77337	0.123379
7.76173	0.136707
7.75012	0.090678
7.73856	0.108626
7.72703	0.0813144
7.71553	0.0183717
7.70406	-0.0166562
7.69263	0.0669
7.68123	0.110572
7.66987	0.0722262
7.65855	0.0876997
7.64725	0.179761
7.63598	0.149182
7.62475	0.139837
7.61356	0.194213
7.60239	0.149849
7.59126	0.171936
7.58017	0.208745
7.5691	0.217068
7.55806	0.218157
7.54707	0.206801
7.5361	0.210947
7.52516	0.223881
7.51425	0.285695
7.50338	0.330493
7.49253	0.242539
7.48172	0.229818
7.47094	0.234611
7.46019	0.284996
7.44947	0.28757
7.43879	0.172344
7.42813	0.10058
7.4175	0.220434
7.4069	0.310295
7.39634	0.284662
7.3858	0.374508
7.37529	0.442493
7.36482	0.388265
7.35437	0.300516
7.34396	0.260625
7.33357	0.342091
7.32321	0.411766
7.31288	0.361721
7.30258	0.324341
7.29231	0.355418
7.28207	0.419069
7.27185	0.438014
7.26167	0.523124
7.25152	0.586996
7.24139	0.545657
7.23129	0.512312
7.22122	0.464392
7.21117	0.436474
7.20116	0.4388
7.19117	0.362759
7.18121	0.352147
7.17128	0.492679
7.16137	0.532716
7.1515	0.544475
7.14164	0.54736
7.13182	0.513139
7.12203	0.517784
7.11225	0.607972
7.10251	0.599371
7.0928	0.522227
7.08311	0.535142
7.07344	0.611711
7.06381	0.602698
7.0542	0.581972
7.04461	0.633323
7.03506	0.614174
7.02552	0.628756
7.01601	0.741069
7.00653	0.747475
6.99708	0.678553
6.98765	0.587902
6.97824	0.590012
6.96886	0.724013
6.95951	0.738373
6.95018	0.74404
6.94087	0.760966
6.9316	0.738164
6.92234	0.742175
6.91311	0.741134
6.90391	0.673816
6.89473	0.647662
6.88557	0.786676
6.87644	0.868704
6.86733	0.814028
6.85824	0.811651
6.84918	0.818491
6.84015	0.7446
6.83114	0.738377
6.82215	0.81651
6.81319	0.859704
6.80424	0.843782
6.79532	0.807566
6.78643	0.800369
6.77756	0.883417
6.76871	0.882378
6.75989	0.837959
6.75109	0.845025
6.74231	0.864457
6.73355	0.904624
6.72482	0.909855
6.71611	0.892289
6.70742	0.910244
6.69875	0.912463
6.69011	0.87039
6.68149	0.962361
6.67289	1.00372
6.66431	0.903183
6.65576	0.916992
6.64722	1.02991
6.63871	1.00051
6.63022	0.993224
6.62175	1.05542
6.61331	1.0403
6.60488	0.960656
6.59648	1.09098
6.5881	1.17906
6.57974	1.09068
6.5714	1.04753
6.56308	0.982629
6.55478	0.952398
6.54651	1.05722
6.53825	1.12362
6.53001	1.05074
6.5218	1.07365
6.51361	1.05693
6.50544	1.07546
6.49729	1.15291
6.48915	1.12529
6.48104	1.11632
6.47295	1.09291
6.46488	0.987848
6.45683	1.06419
6.4488	1.16376
6.44079	1.11634
6.4328	1.10987
6.42482	1.14039
6.41687	1.14003
6.40894	1.03519
6.40103	0.966505
6.39314	1.03451
6.38526	1.11892
6.37741	1.07405
6.36957	1.00236
6.36176	0.9739
6.35396	1.00014
6.34618	1.10898
6.33843	1.17917
6.33069	1.20382
6.32297	1.16766
6.31527	1.05506
6.30758	1.01129
6.29992	1.01289
6.29227	1.01962
6.28465	1.05035
6.27704	1.10738
6.26945	1.10232
6.26188	1.07716
6.25432	1.0546
6.24679	1.07147
6.23927	1.10678
6.23177	1.11159
6.22429	1.11563
6.21683	1.13655
6.20938	1.07672
6.20195	1.00482
6.19454	1.02492
6.18715	1.17538
6.17978	1.22432
6.17242	1.20375
6.16508	1.25581
6.15776	1.19907
6.15045	1.09238
6.14317	1.11928
6.1359	1.15692
6.12864	1.19804
6.12141	1.22179
6.11419	1.20966
6.10699	1.20229
6.0998	1.18991
6.09263	1.19388
6.08549	1.27146
6.07835	1.31066
6.07123	1.28252
6.06413	1.29006
6.05705	1.33115
6.04998	1.41985
6.04293	1.33203
6.0359	1.23378
6.02888	1.21988
6.02187	1.22059
6.01489	1.29498
6.00792	1.34503
6.00096	1.26355
5.99403	1.25405
5.98711	1.26952
5.9802	1.24281
5.97331	1.28824
5.96644	1.32597
5.95958	1.3013
5.95274	1.31826
5.94591	1.37291
5.9391	1.46043
5.9323	1.46583
5.92552	1.37833
5.91876	1.3125
5.91201	1.23235
5.90528	1.18689
5.89856	1.31703
5.89186	1.31704
5.88517	1.32098
5.8785	1.41766
5.87184	1.34691
5.8652	1.3563
5.85857	1.35099
5.85196	1.33
5.84536	1.29844
5.83878	1.2661
5.83221	1.29647
5.82566	1.30742
5.81912	1.32325
5.81259	1.31964
5.80608	1.318
5.79959	1.30063
5.79311	1.31356
5.78665	1.33945
5.78019	1.28631
5.77376	1.1874
5.76734	1.2201
5.76093	1.21563
5.75453	1.24205
5.74815	1.2696
5.74179	1.28434
5.73543	1.33875
5.7291	1.35098
5.72277	1.35664
5.71646	1.31069
5.71017	1.20314
5.70389	1.13539
5.69762	1.1978
5.69136	1.21663
5.68513	1.21988
5.6789	1.2294
5.67268	1.2591
5.66648	1.1984
5.6603	1.19668
5.65413	1.25867
5.64797	1.28529
5.64182	1.30138
5.63569	1.36801
5.62957	1.35194
5.62347	1.28087
5.61737	1.26261
5.61129	1.2915
5.60522	1.34674
5.59917	1.31875
5.59313	1.28189
5.5871	1.35095
5.58109	1.46335
5.57509	1.36067
5.5691	1.27868
5.56312	1.29607
5.55716	1.35264
5.55121	1.34218
5.54528	1.33177
5.53935	1.40787
5.53344	1.4476
5.52754	1.42264
5.52166	1.46642
5.51578	1.50729
5.50992	1.48592
5.50407	1.49083
5.49823	1.47754
5.49241	1.54305
5.4866	1.59852
5.4808	1.53527
5.47501	1.54851
5.46923	1.5964
5.46347	1.6316
5.45772	1.61845
5.45198	1.69601
5.44625	1.74266
5.44054	1.75027
5.43484	1.7825
5.42914	1.86493
5.42347	1.88435
5.4178	1.82196
5.41214	1.85625
5.4065	1.86107
5.40087	1.88584
5.39525	1.90434
5.38964	1.90218
5.38404	1.89457
5.37846	1.79803
5.37288	1.83308
5.36732	1.95476
5.36177	1.9856
5.35623	2.00083
5.35071	1.99775
5.34519	2.00485
5.33968	1.91247
5.33419	1.95168
5.32871	2.07486
5.32324	2.12402
5.31778	2.09559
5.31233	2.10762
5.30689	2.13763
5.30147	2.12817
5.29605	2.12901
5.29065	2.21551
5.28525	2.29703
5.27987	2.28548
5.2745	2.32014
5.26914	2.39955
5.26379	2.37932
5.25845	2.39815
5.25312	2.4724
5.24781	2.49705
5.2425	2.51082
5.23721	2.578
5.23192	2.67352
5.22665	2.73053
5.22138	2.78149
5.21613	2.86115
5.21089	2.98354
5.20566	2.99885
5.20044	3.0633
5.19522	3.17274
5.19002	3.22573
5.18483	3.24492
5.17965	3.37189
5.17448	3.53643
5.16933	3.65506
5.16418	3.73912
5.15904	3.83743
5.15391	3.97409
5.14879	4.10427
5.14368	4.21075
5.13859	4.27723
5.1335	4.35556
5.12842	4.49642
5.12335	4.65499
5.1183	4.82957
5.11325	5.01758
5.10821	5.18667
5.10318	5.32153
5.09817	5.41645
5.09316	5.56276
5.08816	5.7972
5.08317	5.99959
5.07819	6.03306
5.07322	6.13522
5.06826	6.38717
5.06331	6.55093
5.05837	6.72833
5.05344	6.92625
5.04852	7.04215
5.04361	7.23034
5.03871	7.31124
5.03382	7.4139
5.02894	7.58498
5.02406	7.67751
5.0192	7.71067
5.01435	7.77291
5.0095	7.85063
5.00467	7.967
4.99984	8.10179
4.99502	8.18116
4.99021	8.22409
4.98542	8.27158
4.98063	8.45052
4.97585	8.48431
4.97108	8.40975
4.96632	8.38157
4.96156	8.39448
4.95682	8.41059
4.95209	8.39537
4.94736	8.32801
4.94264	8.25919
4.93794	8.19257
4.93324	8.11368
4.92855	8.07419
4.92387	8.01799
4.9192	7.9466
4.91453	7.88519
4.90988	7.80468
4.90524	7.79598
4.9006	7.83709
4.89597	7.76076
4.89135	7.83009
4.88674	7.82821
4.88214	7.75993
4.87755	7.80727
4.87296	7.85913
4.86839	7.85376
4.86382	7.83539
4.85926	7.82435
4.85471	7.86452
4.85017	7.9077
4.84564	7.97416
4.84111	7.99259
4.8366	8.00623
4.83209	8.06582
4.82759	8.09919
4.8231	8.03479
4.81862	8.01793
4.81415	8.03194
4.80968	7.96064
4.80522	7.88804
4.80077	7.89089
4.79633	7.94673
4.7919	7.95563
4.78747	7.92589
4.78306	7.95772
4.77865	8.02312
4.77425	7.99525
4.76986	8.05535
4.76547	8.14292
4.7611	8.18969
4.75673	8.12814
4.75237	8.11942
4.74802	8.16631
4.74367	8.19866
4.73934	8.19216
4.73501	8.17726
4.73069	8.20658
4.72638	8.2351
4.72207	8.23991
4.71777	8.297
4.71348	8.33093
4.7092	8.3259
4.70493	8.43941
4.70066	8.48531
4.69641	8.46043
4.69216	8.44116
4.68791	8.44481
4.68368	8.44284
4.67945	8.52807
4.67523	8.63502
4.67102	8.64645
4.66682	8.66561
4.66262	8.71075
4.65843	8.77722
4.65425	8.89356
4.65007	8.98233
4.64591	9.10742
4.64175	9.16736
4.6376	9.22936
4.63345	9.35743
4.62932	9.44929
4.62519	9.59411
4.62106	9.76272
4.61695	9.87935
4.61284	10.0357
4.60874	10.2198
4.60465	10.401
4.60056	10.4679
4.59648	10.5815
4.59241	10.7765
4.58835	10.9787
4.58429	11.1892
4.58024	11.3987
4.5762	11.5808
4.57216	11.7488
4.56814	11.911
4.56411	12.1154
4.5601	12.3357
4.55609	12.6268
4.55209	12.9413
4.5481	13.1478
4.54411	13.3088
4.54013	13.5863
4.53616	13.8669
4.5322	14.1074
4.52824	14.3743
4.52429	14.6682
4.52034	14.8975
4.51641	15.1903
4.51247	15.4654
4.50855	15.6938
4.50463	15.978
4.50072	16.2827
4.49682	16.5431
4.49292	16.7972
4.48903	16.9985
4.48515	17.2971
4.48127	17.6155
4.4774	17.9325
4.47354	18.2604
4.46968	18.5623
4.46584	18.821
4.46199	19.1002
4.45815	19.4214
4.45432	19.7708
4.4505	20.0856
4.44668	20.3356
4.44287	20.6236
4.43907	20.9318
4.43527	21.1964
4.43148	21.5741
4.4277	21.9615
4.42392	22.2552
4.42015	22.5736
4.41638	22.9055
4.41262	23.181
4.40887	23.5266
4.40513	23.891
4.40139	24.1594
4.39765	24.458
4.39393	24.8345
4.39021	25.202
4.38649	25.509
4.38278	25.8669
4.37908	26.2784
4.37539	26.6675
4.3717	27.0247
4.36801	27.3707
4.36434	27.7815
4.36067	28.2548
4.357	28.6814
4.35335	29.0477
4.34969	29.4396
4.34605	29.8298
4.34241	30.2963
4.33877	30.7613
4.33514	31.2694
4.33152	31.7449
4.32791	32.227
4.3243	32.7206
4.32069	33.1259
4.3171	33.5631
4.31351	34.1317
4.30992	34.6683
4.30634	35.1959
4.30277	35.6777
4.2992	36.1569
4.29564	36.6068
4.29208	37.1126
4.28853	37.6649
4.28499	38.1361
4.28145	38.5143
4.27792	38.9632
4.27439	39.3821
4.27087	39.6969
4.26735	40.0404
4.26384	40.4605
4.26034	40.7532
4.25684	40.9631
4.25335	41.3869
4.24986	41.9637
4.24638	42.5207
4.24291	43.026
4.23944	43.4691
4.23598	43.8313
4.23252	44.1938
4.22906	44.4559
4.22562	44.6535
4.22218	44.9573
4.21874	45.2176
4.21531	45.3716
4.21189	45.4484
4.20847	45.5988
4.20506	45.8017
4.20165	46.0439
4.19825	46.2563
4.19485	46.4272
4.19146	46.6609
4.18807	46.9029
4.18469	47.0955
4.18132	47.2966
4.17795	47.4715
4.17458	47.6476
4.17123	47.7688
4.16787	47.9223
4.16453	48.0308
4.16118	48.178
4.15785	48.3862
4.15451	48.5359
4.15119	48.6094
4.14787	48.7508
4.14455	48.8761
4.14124	48.9894
4.13794	49.121
4.13464	49.3185
4.13134	49.4463
4.12805	49.4844
4.12477	49.5477
4.12149	49.6609
4.11822	49.793
4.11495	49.8793
4.11168	49.9427
4.10843	50.0349
4.10517	50.1239
4.10192	50.193
4.09868	50.2027
4.09545	50.2984
4.09221	50.4285
4.08899	50.4265
4.08576	50.4166
4.08255	50.5207
4.07933	50.6397
4.07613	50.6714
4.07292	50.6911
4.06973	50.7441
4.06654	50.8032
4.06335	50.8905
4.06017	50.968
4.05699	50.9744
4.05382	51.03
4.05065	51.1157
4.04749	51.1407
4.04433	51.1806
4.04118	51.1587
4.03803	51.1622
4.03489	51.3299
4.03175	51.4338
4.02862	51.3942
4.02549	51.3952
4.02237	51.4245
4.01925	51.4704
4.01614	51.5412
4.01303	51.5999
4.00993	51.6693
4.00683	51.769
4.00373	51.7524
4.00064	51.7582
3.99756	51.9124
3.99448	51.9988
3.9914	51.9962
3.98833	52.038
3.98527	52.0501
3.98221	52.0008
3.97915	52.0814
3.9761	52.1811
3.97305	52.2641
3.97001	52.3733
3.96697	52.4411
3.96394	52.5287
3.96091	52.6296
3.95789	52.7009
3.95487	52.7193
3.95186	52.784
3.94885	52.8661
3.94584	52.9074
3.94284	52.9792
3.93984	53.0754
3.93685	53.176
3.93386	53.3286
3.93088	53.3749
3.9279	53.436
3.92493	53.4769
3.92196	53.5436
3.919	53.6393
3.91604	53.6593
3.91308	53.7005
3.91013	53.8726
3.90718	53.9586
3.90424	53.9919
3.9013	54.0672
3.89837	54.2181
3.89544	54.3494
3.89252	54.4742
3.8896	54.5309
3.88668	54.5663
3.88377	54.601
3.88086	54.7102
3.87796	54.8676
3.87506	54.9632
3.87217	55.0176
3.86928	55.1242
3.86639	55.2447
3.86351	55.3978
3.86064	55.5495
3.85776	55.6788
3.8549	55.8164
3.85203	55.9199
3.84917	55.9984
3.84631	56.105
3.84346	56.2604
3.84062	56.3878
3.83777	56.4872
3.83494	56.64
3.8321	56.7398
3.82927	56.8539
3.82644	57.0374
3.82362	57.248
3.82081	57.3784
3.81799	57.4472
3.81518	57.5911
3.81238	57.7464
3.80958	57.8435
3.80678	57.9976
3.80399	58.0892
3.8012	58.2218
3.79841	58.3915
3.79563	58.5134
3.79286	58.6166
3.79008	58.721
3.78731	58.8454
3.78455	58.9994
3.78179	59.1205
3.77903	59.1835
3.77628	59.25
3.77353	59.3547
3.77079	59.4989
3.76805	59.6473
3.76531	59.7224
3.76258	59.7858
3.75985	59.799
3.75713	59.8769
3.7544	60.0531
3.75169	60.1455
3.74898	60.2473
3.74627	60.3466
3.74356	60.3973
3.74086	60.4856
3.73816	60.605
3.73547	60.7326
3.73278	60.9109
3.7301	61.0317
3.72741	61.0759
3.72474	61.0899
3.72206	61.152
3.71939	61.2885
3.71673	61.4013
3.71406	61.5036
3.71141	61.6016
3.70875	61.7141
3.7061	61.738
3.70345	61.7699
3.70081	61.8841
3.69817	61.9844
3.69553	62.0716
3.6929	62.1779
3.69027	62.2297
3.68765	62.2971
3.68503	62.4324
3.68241	62.4894
3.6798	62.5351
3.67719	62.6406
3.67458	62.7581
3.67198	62.7854
3.66938	62.8173
3.66678	62.9332
3.66419	63.0282
3.66161	63.1029
3.65902	63.1528
3.65644	63.2175
3.65387	63.2733
3.65129	63.3592
3.64872	63.4214
3.64616	63.4152
3.64359	63.4904
3.64103	63.6299
3.63848	63.6823
3.63593	63.6721
3.63338	63.6784
3.63084	63.7607
3.6283	63.8056
3.62576	63.8481
3.62322	63.804
3.62069	63.7985
3.61817	63.9004
3.61564	63.9056
3.61312	63.9313
3.61061	64.0017
3.6081	64.0623
3.60559	64.0905
3.60308	64.0746
3.60058	64.1312
3.59808	64.1092
3.59558	64.0101
3.59309	63.9976
3.59061	64.1051
3.58812	64.1784
3.58564	64.1666
3.58316	64.1747
3.58069	64.1573
3.57822	64.054
3.57575	64.0524
3.57328	64.0484
3.57082	64.0181
3.56836	64.0192
3.56591	64.0228
3.56346	63.9653
3.56101	63.9693
3.55857	63.9388
3.55613	63.9196
3.55369	63.8749
3.55126	63.8211
3.54883	63.7806
3.5464	63.7368
3.54397	63.7032
3.54155	63.6049
3.53914	63.5569
3.53672	63.5354
3.53431	63.4583
3.5319	63.307
3.5295	63.1778
3.5271	63.0878
3.5247	62.8917
3.52231	62.7107
3.51991	62.4896
3.51753	62.1747
3.51514	61.9031
3.51276	61.5942
3.51038	61.2763
3.50801	60.8727
3.50563	60.4927
3.50327	60.2764
3.5009	60.1757
3.49854	60.1977
3.49618	60.2185
3.49382	60.3318
3.49147	60.491
3.48912	60.5395
3.48677	60.4984
3.48443	60.4601
3.48209	60.4811
3.47975	60.5097
3.47742	60.5201
3.47509	60.5216
3.47276	60.4078
3.47044	60.3788
3.46812	60.365
3.4658	60.3988
3.46348	60.3251
3.46117	60.2727
3.45886	60.2241
3.45656	60.0135
3.45425	59.8216
3.45195	59.6951
3.44966	59.5247
3.44736	59.3901
3.44507	59.2131
3.44279	58.9411
3.4405	58.6583
3.43822	58.5014
3.43594	58.3062
3.43367	57.9879
3.43139	57.6152
3.42912	57.2417
3.42686	56.8339
3.42459	56.4483
3.42233	56.1518
3.42007	55.8324
3.41782	55.6513
3.41557	55.6398
3.41332	55.6437
3.41108	55.7502
3.40883	55.9782
3.40659	56.1894
3.40435	56.4083
3.40212	56.6347
3.39989	56.7317
3.39766	56.7071
3.39544	56.7199
3.39322	56.826
3.391	56.9084
3.38878	56.8675
3.38657	56.7795
3.38436	56.624
3.38215	56.4153
3.37994	56.3044
3.37774	56.1766
3.37554	56.2427
3.37335	56.338
3.37115	56.3529
3.36896	56.4282
3.36678	56.5951
3.36459	56.658
3.36241	56.7552
3.36023	56.9331
3.35805	57.0798
3.35588	57.1528
3.35371	57.152
3.35154	57.0959
3.34938	57.1835
3.34721	57.2471
3.34505	57.1397
3.3429	57.053
3.34074	57.0669
3.33859	57.009
3.33644	56.9865
3.3343	56.9589
3.33215	56.8212
3.33001	56.7137
3.32788	56.6521
3.32574	56.5645
3.32361	56.479
3.32148	56.3745
3.31936	56.378
3.31723	56.3397
3.31511	56.2307
3.31299	56.136
3.31088	56.0199
3.30876	55.9025
3.30665	55.7851
3.30455	55.7249
3.30244	55.7155
3.30034	55.5377
3.29824	55.452
3.29614	55.4908
3.29405	55.4574
3.29196	55.2497
3.28987	55.0235
3.28778	54.9568
3.2857	54.9023
3.28362	54.7779
3.28154	54.6806
3.27946	54.6856
3.27739	54.6489
3.27532	54.5133
3.27325	54.4468
3.27119	54.401
3.26913	54.1848
3.26707	53.9567
3.26501	53.9169
3.26295	53.9658
3.2609	53.9487
3.25885	53.8395
3.2568	53.7046
3.25476	53.5606
3.25272	53.4617
3.25068	53.3882
3.24864	53.395
3.24661	53.2891
3.24458	53.1657
3.24255	53.0859
3.24052	53.0146
3.2385	52.9661
3.23648	52.9037
3.23446	52.8193
3.23244	52.7611
3.23043	52.725
3.22841	52.6036
3.2264	52.5196
3.2244	52.4879
3.22239	52.4522
3.22039	52.332
3.21839	52.1762
3.2164	52.1377
3.2144	52.0705
3.21241	51.9429
3.21042	51.9291
3.20844	51.9208
3.20645	51.8871
3.20447	51.8882
3.20249	51.8504
3.20051	51.764
3.19854	51.6798
3.19657	51.5642
3.1946	51.4724
3.19263	51.4009
3.19067	51.2057
3.1887	51.1542
3.18674	51.2041
3.18479	51.1861
3.18283	51.1836
3.18088	51.0728
3.17893	50.8959
3.17698	50.7785
3.17504	50.791
3.17309	50.7612
3.17115	50.7077
3.16921	50.6481
3.16728	50.6083
3.16534	50.5899
3.16341	50.4203
3.16148	50.3298
3.15956	50.3609
3.15763	50.321
3.15571	50.1827
3.15379	50.0987
3.15187	50.1468
3.14996	50.047
3.14805	49.9584
3.14614	49.9253
3.14423	49.9238
3.14232	49.8424
3.14042	49.7366
3.13852	49.693
3.13662	49.6679
3.13472	49.5851
3.13283	49.5337
3.13094	49.5629
3.12905	49.4822
3.12716	49.5004
3.12528	49.4392
3.12339	49.3098
3.12151	49.3177
3.11964	49.3085
3.11776	49.1755
3.11589	49.0951
3.11401	49.0824
3.11214	49.0516
3.11028	49.0156
3.10841	48.8462
3.10655	48.7538
3.10469	48.7984
3.10283	48.8387
3.10098	48.8074
3.09912	48.6245
3.09727	48.5814
3.09542	48.675
3.09358	48.718
3.09173	48.6829
3.08989	48.583
3.08805	48.4432
3.08621	48.3859
3.08437	48.3355
3.08254	48.2776
3.08071	48.2898
3.07888	48.2456
3.07705	48.2156
3.07523	48.2691
3.0734	48.2108
3.07158	48.0931
3.06977	48.1394
3.06795	48.0952
3.06613	48.0196
3.06432	48.0767
3.06251	48.138
3.0607	48.0341
3.0589	47.9826
3.0571	48.0098
3.05529	47.9799
3.05349	47.9059
3.0517	47.9175
3.0499	47.9945
3.04811	47.967
3.04632	47.9369
3.04453	47.8855
3.04274	47.8023
3.04096	47.7755
3.03918	47.7978
3.0374	47.8294
3.03562	47.9203
3.03384	47.9654
3.03207	47.857
3.03029	47.7518
3.02852	47.7259
3.02676	47.6786
3.02499	47.6597
3.02323	47.7084
3.02146	47.7096
3.0197	47.6614
3.01795	47.6517
3.01619	47.6795
3.01444	47.5943
3.01269	47.5584
3.01094	47.5221
3.00919	47.4888
3.00744	47.5254
3.0057	47.5301
3.00396	47.4327
3.00222	47.3645
3.00048	47.4508
2.99875	47.3987
2.99701	47.2606
2.99528	47.1813
2.99355	47.1873
2.99183	47.1865
2.9901	47.0384
2.98838	46.9251
2.98666	46.8699
2.98494	46.8302
2.98322	46.8643
2.9815	46.8994
2.97979	46.8627
2.97808	46.7941
2.97637	46.7536
2.97466	46.7096
2.97295	46.6578
2.97125	46.5177
2.96955	46.4238
2.96785	46.345
2.96615	46.2779
2.96446	46.3595
2.96276	46.4157
2.96107	46.3262
2.95938	46.3617
2.95769	46.454
2.95601	46.287
2.95432	46.1117
2.95264	46.0739
2.95096	46.1025
2.94928	46.0817
2.9476	46.0077
2.94593	46.0032
2.94425	46.038
2.94258	45.9869
2.94092	45.9262
2.93925	45.952
2.93758	45.9684
2.93592	45.9321
2.93426	45.8917
2.9326	45.7829
2.93094	45.7624
2.92928	45.7834
2.92763	45.767
2.92598	45.668
2.92433	45.6554
2.92268	45.72
2.92103	45.7812
2.91939	45.8005
2.91775	45.7715
2.9161	45.7366
2.91447	45.701
2.91283	45.8073
2.91119	45.9057
2.90956	45.8545
2.90793	45.7016
2.9063	45.7254
2.90467	45.8486
2.90304	45.8912
2.90142	45.8204
2.89979	45.7553
2.89817	45.7575
2.89656	45.812
2.89494	45.8602
2.89332	45.9111
2.89171	45.9045
2.8901	45.9438
2.88849	46.0377
2.88688	46.1511
2.88527	46.2608
2.88367	46.3136
2.88206	46.3509
2.88046	46.461
2.87886	46.5642
2.87727	46.5409
2.87567	46.6429
2.87408	46.8307
2.87248	46.9368
2.87089	47.004
2.8693	47.035
2.86772	47.0308
2.86613	47.1312
2.86455	47.2661
2.86297	47.2881
2.86139	47.4043
2.85981	47.5927
2.85823	47.7561
2.85666	47.8921
2.85508	47.9888
2.85351	48.0908
2.85194	48.0946
2.85038	48.1116
2.84881	48.3045
2.84724	48.4034
2.84568	48.5087
2.84412	48.6667
2.84256	48.7068
2.841	48.7566
2.83945	48.8071
2.83789	48.997
2.83634	49.1793
2.83479	49.1591
2.83324	49.1164
2.83169	49.2543
2.83015	49.4052
2.82861	49.5243
2.82706	49.6134
2.82552	49.5781
2.82398	49.5838
2.82245	49.6034
2.82091	49.8505
2.81938	49.9751
2.81784	50.0318
2.81631	50.2624
2.81479	50.4164
2.81326	50.3693
2.81173	50.3736
2.81021	50.3757
2.80869	50.4232
2.80716	50.5773
2.80565	50.8143
2.80413	51.3127
2.80261	51.4346
2.8011	51.083
2.79959	50.8678
2.79808	50.7611
2.79657	50.8001
2.79506	50.8632
2.79355	50.9751
2.79205	51.157
2.79055	51.3403
2.78904	51.6326
2.78754	52.0097
2.78605	51.7047
2.78455	51.2503
2.78306	51.3782
2.78156	51.469
2.78007	51.4727
2.77858	51.5463
2.77709	51.7545
2.77561	51.7513
2.77412	51.8049
2.77264	52.1951
2.77116	52.7444
2.76968	52.7337
2.7682	52.6952
2.76672	52.4757
2.76524	52.0114
2.76377	51.9567
2.7623	51.92
2.76083	51.8472
2.75936	52.5297
2.75789	53.6234
2.75642	55.4419
2.75496	56.3964
2.7535	55.7207
2.75203	55.8754
2.75057	56.12
2.74912	56.3127
2.74766	56.5588
2.7462	56.9033
2.74475	57.2337
2.7433	57.7932
2.74185	59.1096
2.7404	60.1044
2.73895	59.8926
2.7375	58.964
2.73606	59.292
2.73462	59.9947
2.73318	59.8465
2.73174	60.0908
2.7303	60.4907
2.72886	60.91
2.72742	61.4952
2.72599	62.5954
2.72456	63.8444
2.72313	63.6849
2.7217	64.5758
2.72027	65.9447
2.71884	64.9867
2.71742	64.5916
2.71599	64.4193
2.71457	64.357
2.71315	64.429
2.71173	65.3277
2.71032	65.0927
2.7089	63.5959
2.70748	62.1993
2.70607	61.143
2.70466	60.6134
2.70325	60.8974
2.70184	62.2551
2.70043	63.6788
2.69903	65.0756
2.69762	66.9406
2.69622	69.1474
2.69482	71.4151
2.69342	72.8078
2.69202	72.7722
2.69062	73.1971
2.68923	74.2287
2.68783	75.1146
2.68644	75.8325
2.68505	76.2839
2.68366	76.7801
2.68227	76.8872
2.68089	77.3905
2.6795	78.849
2.67812	79.4849
2.67673	79.9197
2.67535	79.3108
2.67397	78.6886
2.6726	79.2021
2.67122	81.6149
2.66984	82.219
2.66847	80.9858
2.6671	82.3022
2.66572	82.7531
2.66435	81.856
2.66299	80.6966
2.66162	80.8416
2.66025	81.1084
2.65889	80.9484
2.65753	80.4284
2.65616	80.9185
2.65481	80.9985
2.65345	81.1593
2.65209	81.3632
2.65073	80.8173
2.64938	80.5054
2.64803	80.7629
2.64667	81.2681
2.64532	81.4878
2.64397	81.0543
2.64263	81.154
2.64128	81.1173
2.63994	80.9107
2.63859	80.82
2.63725	80.9062
2.63591	81.0236
2.63457	81.6806
2.63323	81.8727
2.6319	82.3564
2.63056	83.5105
2.62923	82.487
2.62789	82.0882
2.62656	82.8465
2.62523	81.8258
2.6239	81.3144
2.62258	81.5624
2.62125	82.8076
2.61993	83.1083
2.6186	82.5933
2.61728	83.6185
2.61596	83.1319
2.61464	81.9608
2.61332	82.0367
2.61201	81.9327
2.61069	82.1011
2.60938	82.312
2.60807	82.4469
2.60675	83.1885
2.60544	83.8712
2.60414	83.1032
2.60283	82.3552
2.60152	82.1103
2.60022	81.8335
2.59891	81.6198
2.59761	82.1389
2.59631	83.9926
2.59501	86.2983
2.59371	84.4672
2.59242	82.2145
2.59112	81.7732
2.58983	82.0946
2.58853	82.6502
2.58724	82.9803
2.58595	82.4437
2.58466	83.2049
2.58338	83.4153
2.58209	82.5565
2.5808	82.4643
2.57952	81.8661
2.57824	82.1447
2.57695	82.7545
2.57567	82.2956
2.5744	82.5227
2.57312	82.9939
2.57184	82.1283
2.57057	82.4033
2.56929	82.693
2.56802	82.0604
2.56675	81.8617
2.56548	82.4094
2.56421	83.0656
2.56294	83.2373
2.56168	83.3565
2.56041	82.7876
2.55915	82.0098
2.55789	81.6979
2.55662	81.685
2.55536	81.6962
2.5541	81.9909
2.55285	82.4344
2.55159	82.3125
2.55034	82.0516
2.54908	81.9789
2.54783	82.1302
2.54658	81.9443
2.54533	81.9387
2.54408	82.1672
2.54283	82.2115
2.54159	81.9404
2.54034	81.8359
2.5391	81.9095
2.53785	81.8972
2.53661	82.0247
2.53537	81.9525
2.53413	81.8679
2.53289	82.0496
2.53166	82.025
2.53042	81.9361
2.52919	81.9159
2.52795	81.9723
2.52672	81.9912
2.52549	81.9395
2.52426	82.0328
2.52303	82.1002
2.52181	82.1035
2.52058	82.1007
2.51936	82.0853
2.51813	82.0389
2.51691	81.9912
2.51569	81.9621
2.51447	81.9707
2.51325	82.0391
2.51203	82.0677
2.51082	81.9882
2.5096	81.9189
2.50839	81.9373
2.50717	82.0795
2.50596	82.1064
2.50475	82.0999
2.50354	82.1794
2.50233	82.1717
2.50113	82.1692
2.49992	82.234
2.49872	82.1796
2.49751	82.1405
2.49631	82.2706
2.49511	82.206
2.49391	82.0921
2.49271	82.1591
2.49151	82.2513
2.49031	82.2739
2.48912	82.2136
2.48792	82.2005
2.48673	82.2069
2.48554	82.2957
2.48435	82.3643
2.48316	82.3973
2.48197	82.362
2.48078	82.3098
2.4796	82.2799
2.47841	82.2987
2.47723	82.4194
2.47604	82.4055
2.47486	82.3248
2.47368	82.413
2.4725	82.4743
2.47132	82.4701
2.47014	82.5075
2.46897	82.5311
2.46779	82.5001
2.46662	82.4912
2.46545	82.4914
2.46427	82.5406
2.4631	82.5711
2.46193	82.552
2.46077	82.4833
2.4596	82.4526
2.45843	82.4999
2.45727	82.6397
2.4561	82.6105
2.45494	82.6537
2.45378	82.763
2.45262	82.8216
2.45146	82.8464
2.4503	82.844
2.44914	82.7474
2.44799	82.7162
2.44683	82.7305
2.44568	82.6642
2.44452	82.6419
2.44337	82.7725
2.44222	82.9639
2.44107	83.0223
2.43992	82.8908
2.43877	82.8667
2.43763	82.8456
2.43648	82.8235
2.43534	82.9053
2.43419	82.9785
2.43305	82.9749
2.43191	82.9122
2.43077	82.9456
2.42963	82.9192
2.42849	82.943
2.42736	83.0485
2.42622	82.9933
2.42509	83.0626
2.42395	83.106
2.42282	83.1464
2.42169	83.1694
2.42056	83.2146
2.41943	83.2657
2.4183	83.3148
2.41717	83.4134
2.41605	83.3574
2.41492	83.216
2.4138	83.2037
2.41267	83.3122
2.41155	83.3892
2.41043	83.4329
2.40931	83.4202
2.40819	83.3491
2.40707	83.3893
2.40595	83.3857
2.40484	83.3888
2.40372	83.424
2.40261	83.4337
2.4015	83.4366
2.40039	83.4332
2.39928	83.4202
2.39817	83.5041
2.39706	83.5937
2.39595	83.5515
2.39484	83.4549
2.39374	83.3752
2.39263	83.3642
2.39153	83.4475
2.39043	83.4441
2.38932	83.4381
2.38822	83.4284
2.38712	83.4214
2.38603	83.5239
2.38493	83.4739
2.38383	83.3708
2.38274	83.4636
2.38164	83.502
2.38055	83.5757
2.37946	83.687
2.37836	83.6613
2.37727	83.669
2.37618	83.7952
2.3751	83.8229
2.37401	83.7665
2.37292	83.6842
2.37184	83.6554
2.37075	83.6581
2.36967	83.693
2.36859	83.7205
2.3675	83.793
2.36642	83.6589
2.36534	83.5896
2.36427	83.6396
2.36319	83.7265
2.36211	83.7634
2.36104	83.7023
2.35996	83.6277
2.35889	83.639
2.35781	83.6392
2.35674	83.671
2.35567	83.7147
2.3546	83.7278
2.35353	83.6732
2.35247	83.5614
2.3514	83.6672
2.35033	83.7019
2.34927	83.6861
2.3482	83.6676
2.34714	83.6079
2.34608	83.5777
2.34502	83.5685
2.34396	83.7065
2.3429	83.6826
2.34184	83.5367
2.34078	83.5128
2.33973	83.5869
2.33867	83.6241
2.33762	83.6993
2.33656	83.7363
2.33551	83.7454
2.33446	83.7197
2.33341	83.6631
2.33236	83.6186
2.33131	83.6937
2.33026	83.8608
2.32922	83.8297
2.32817	83.7526
2.32712	83.7115
2.32608	83.718
2.32504	83.7174
2.324	83.716
2.32295	83.7264
2.32191	83.7948
2.32087	83.7754
2.31984	83.72
2.3188	83.7068
2.31776	83.6313
2.31673	83.6069
2.31569	83.6766
2.31466	83.8591
2.31362	83.8644
2.31259	83.8214
2.31156	83.7147
2.31053	83.594
2.3095	83.5624
2.30847	83.6066
2.30745	83.6491
2.30642	83.5783
2.3054	83.4995
2.30437	83.6255
2.30335	83.6986
2.30232	83.6843
2.3013	83.7218
2.30028	83.6802
2.29926	83.6656
2.29824	83.7087
2.29722	83.7333
2.29621	83.7579
2.29519	83.8345
2.29417	83.888
2.29316	83.848
2.29215	83.7325
2.29113	83.7074
2.29012	83.8211
2.28911	83.7651
2.2881	83.7528
2.28709	83.8432
2.28608	83.9348
2.28507	83.7829
2.28407	83.5441
2.28306	83.5489
2.28206	83.7777
2.28105	83.8594
2.28005	83.7545
2.27905	83.7782
2.27805	83.9417
2.27705	83.8605
2.27605	83.7985
2.27505	83.7947
2.27405	83.7948
2.27305	83.7346
2.27206	83.678
2.27106	83.8062
2.27007	83.943
2.26907	83.9425
2.26808	83.8139
2.26709	83.7532
2.2661	83.7898
2.26511	83.7192
2.26412	83.7591
2.26313	83.7985
2.26214	83.8604
2.26116	83.9061
2.26017	83.849
2.25919	83.7711
2.2582	83.689
2.25722	83.6964
2.25624	83.6379
2.25526	83.6954
2.25428	83.7666
2.2533	83.8154
2.25232	83.9718
2.25134	83.9784
2.25036	83.8278
2.24939	83.8355
2.24841	83.9593
2.24744	83.8877
2.24646	83.8542
2.24549	83.9721
2.24452	83.9094
2.24355	83.9083
2.24257	83.9817
2.24161	83.9413
2.24064	84.0152
2.23967	83.994
2.2387	83.9546
2.23774	83.8719
2.23677	83.8252
2.23581	83.8598
2.23484	83.875
2.23388	83.8557
2.23292	84.0283
2.23196	84.0193
2.231	83.8946
2.23004	83.8265
2.22908	83.8637
2.22812	83.8891
2.22716	83.8172
2.22621	83.7177
2.22525	83.7658
2.2243	83.9215
2.22334	83.8775
2.22239	83.8743
2.22144	83.9338
2.22049	83.9227
2.21953	83.9002
2.21859	83.8518
2.21764	83.7802
2.21669	83.7469
2.21574	83.8795
2.21479	83.8991
2.21385	83.8866
2.2129	83.8448
2.21196	83.7837
2.21102	83.7541
2.21007	83.6575
2.20913	83.7458
2.20819	83.8703
2.20725	83.7925
2.20631	83.7724
2.20537	83.7287
2.20444	83.6348
2.2035	83.5818
2.20256	83.5484
2.20163	83.6881
2.20069	83.7633
2.19976	83.7252
2.19883	83.7771
2.19789	83.8863
2.19696	84.0349
2.19603	83.9529
2.1951	83.7144
2.19417	83.7342
2.19325	83.8018
2.19232	83.8261
2.19139	83.7986
2.19047	83.759
2.18954	83.7344
2.18862	83.9111
2.18769	83.9657
2.18677	83.9791
2.18585	84.0021
2.18493	84.0043
2.18401	83.9957
2.18309	83.9394
2.18217	83.928
2.18125	83.8285
2.18033	83.8297
2.17942	83.9249
2.1785	83.944
2.17759	84.0336
2.17667	84.0996
2.17576	84.0398
2.17485	83.8606
2.17393	83.8355
2.17302	83.8564
2.17211	83.9165
2.1712	84.0639
2.17029	84.1058
2.16939	84.0427
2.16848	83.9847
2.16757	84.0745
2.16667	84.111
2.16576	84.0309
2.16486	83.9028
2.16395	83.9617
2.16305	84.0986
2.16215	84.1745
2.16125	84.1913
2.16035	84.1808
2.15945	84.1336
2.15855	84.077
2.15765	84.0595
2.15675	84.1714
2.15586	84.2187
2.15496	84.2897
2.15406	84.3474
2.15317	84.276
2.15228	84.0729
2.15138	84.1352
2.15049	84.1564
2.1496	84.0851
2.14871	84.1091
2.14782	84.1367
2.14693	84.1434
2.14604	84.1547
2.14515	84.0774
2.14427	83.9159
2.14338	84.0046
2.14249	84.2821
2.14161	84.405
2.14072	84.3531
2.13984	84.3592
2.13896	84.4428
2.13808	84.4657
2.13719	84.4329
2.13631	84.2306
2.13543	84.2294
2.13455	84.102
2.13368	84.1226
2.1328	84.3114
2.13192	84.3084
2.13105	84.007
2.13017	84.0425
2.1293	84.2862
2.12842	84.2996
2.12755	84.4164
2.12668	84.4731
2.1258	84.2377
2.12493	84.1854
2.12406	84.2268
2.12319	84.2612
2.12232	84.2569
2.12145	84.1693
2.12059	84.1936
2.11972	84.2154
2.11885	84.2092
2.11799	84.221
2.11712	84.2392
2.11626	84.399
2.1154	84.3395
2.11453	84.1697
2.11367	84.1036
2.11281	84.2098
2.11195	84.3555
2.11109	84.4866
2.11023	84.3397
2.10937	84.1674
2.10851	84.2607
2.10766	84.3024
2.1068	84.1781
2.10594	84.1223
2.10509	84.2015
2.10423	84.2865
2.10338	84.3231
2.10253	84.2407
2.10168	84.245
2.10082	84.415
2.09997	84.3
2.09912	84.2553
2.09827	84.2909
2.09742	84.1141
2.09658	84.1025
2.09573	84.3421
2.09488	84.5334
2.09404	84.4104
2.09319	84.2884
2.09235	84.2893
2.0915	84.1617
2.09066	84.3186
2.08982	84.4395
2.08897	84.3469
2.08813	84.4244
2.08729	84.4983
2.08645	84.275
2.08561	84.2592
2.08477	84.3144
2.08394	84.2405
2.0831	84.2574
2.08226	84.2972
2.08143	84.1832
2.08059	84.2278
2.07976	84.1713
2.07892	84.1217
2.07809	84.294
2.07726	84.2719
2.07643	84.1992
2.07559	84.215
2.07476	84.3856
2.07393	84.304
2.0731	84.0952
2.07228	84.0073
2.07145	83.9545
2.07062	84.1649
2.06979	84.3773
2.06897	84.3749
2.06814	84.2728
2.06732	84.1626
2.06649	84.2485
2.06567	84.2304
2.06485	84.3195
2.06403	84.3362
2.0632	84.1668
2.06238	84.1328
2.06156	84.2638
2.06074	84.2088
2.05993	84.4003
2.05911	84.4615
2.05829	84.3402
2.05747	84.1697
2.05666	84.0617
2.05584	84.1981
2.05503	84.1526
2.05421	84.0609
2.0534	84.2262
2.05259	84.3945
2.05177	84.3892
2.05096	84.2724
2.05015	84.0916
2.04934	84.0673
2.04853	84.1816
2.04772	84.1421
2.04691	84.0915
2.04611	84.2739
2.0453	84.4446
2.04449	84.3582
2.04369	84.3087
2.04288	84.315
2.04208	84.1718
2.04127	84.0288
2.04047	84.0059
2.03967	84.1548
2.03886	84.1875
2.03806	84.145
2.03726	84.1284
2.03646	84.1133
2.03566	84.0942
2.03486	84.1875
2.03407	84.1672
2.03327	84.1332
2.03247	83.9558
2.03167	83.9885
2.03088	84.1357
2.03008	84.193
2.02929	84.1349
2.0285	84.1133
2.0277	84.219
2.02691	84.3251
2.02612	84.3472
2.02533	84.268
2.02453	84.1559
2.02374	84.1008
2.02295	84.2187
2.02217	84.2993
2.02138	84.1245
2.02059	83.9172
2.0198	84.0053
2.01902	84.1098
2.01823	84.0684
2.01744	84.0595
2.01666	83.9271
2.01588	83.9105
2.01509	84.0787
2.01431	84.1458
2.01353	84.0125
2.01275	83.9409
2.01196	84.0308
2.01118	84.1978
2.0104	84.1703
2.00963	84.239
2.00885	84.3939
2.00807	84.1719
2.00729	83.7721
2.00651	83.8785
2.00574	84.0763
2.00496	83.9917
2.00419	83.9716
2.00341	83.9164
2.00264	83.7744
2.00187	83.9283
2.00109	84.0606
2.00032	84.0909
