Name: Grossular Garnet Ca_3Al_2(SiO_4)_3
Type: Mineral
Class: Silicates
Subclass: Nesosilicates
Particle Size: 125-500um
Sample No.: NS-3B
Owner: JPL
Wavelength range: IR
Origin: Mexico, Lake Jaco
Collected by New, David
Description: 





Measurement: Hemispherical reflectance
First Column: X
Second Column: Y
X Units:  Wavelength (micrometers)
Y Units:  Reflectance (percent)
First X Value: 15.3853
Last X Value: 2.00032
Number of X Values: 2256
Additional information: ns03ba.txt
 
15.3853	1.30046
15.3397	1.54419
15.2945	1.61984
15.2495	1.61411
15.2048	1.78949
15.1603	2.08492
15.1161	2.2276
15.0722	2.26397
15.0285	2.24752
14.9851	2.41656
14.9419	2.69475
14.8989	2.72754
14.8563	2.66906
14.8138	2.73539
14.7716	3.02459
14.7296	3.10187
14.6879	3.07603
14.6464	3.16829
14.6052	3.19128
14.5641	3.42343
14.5233	3.6126
14.4828	3.42047
14.4424	3.2929
14.4023	3.54519
14.3624	3.69077
14.3227	3.82253
14.2833	3.97331
14.244	4.07974
14.205	4.22487
14.1662	4.37104
14.1276	4.51467
14.0892	4.50847
14.051	4.40064
14.0131	4.60654
13.9753	4.83377
13.9377	4.79853
13.9004	4.80264
13.8632	4.92666
13.8262	5.16142
13.7895	5.30547
13.7529	5.38079
13.7165	5.48256
13.6803	5.51374
13.6443	5.61865
13.6085	5.89817
13.5729	6.11845
13.5374	6.34399
13.5022	6.43535
13.4671	6.51766
13.4322	6.58254
13.3975	6.6161
13.363	6.71582
13.3286	6.80541
13.2944	6.92834
13.2604	6.93688
13.2266	6.90241
13.193	6.90719
13.1595	6.92729
13.1262	6.75062
13.093	6.8843
13.06	7.01659
13.0272	7.16512
12.9946	7.26496
12.9621	7.31746
12.9298	7.42722
12.8976	7.63053
12.8656	7.95864
12.8337	8.27657
12.8021	8.62421
12.7705	8.92507
12.7391	9.31278
12.7079	9.62017
12.6769	9.82796
12.6459	10.0612
12.6152	10.3378
12.5845	10.6188
12.5541	11.0305
12.5238	11.4603
12.4936	11.9022
12.4635	12.2876
12.4337	12.6961
12.4039	13.1996
12.3743	13.7775
12.3448	14.4204
12.3155	15.0215
12.2863	15.6029
12.2573	16.1918
12.2284	17.0023
12.1996	17.8486
12.171	18.777
12.1425	19.9424
12.1141	21.0559
12.0859	22.2552
12.0578	23.6789
12.0298	25.1218
12.0019	26.3062
11.9742	27.2323
11.9466	27.7566
11.9192	27.7868
11.8918	27.3803
11.8646	26.6609
11.8375	26.0178
11.8106	25.4513
11.7837	25.4571
11.757	26.2159
11.7304	27.3069
11.7039	28.6317
11.6776	29.9535
11.6513	30.9868
11.6252	31.4743
11.5992	31.5506
11.5733	31.1548
11.5475	30.2468
11.5219	28.9716
11.4963	27.3513
11.4709	25.2515
11.4455	22.8093
11.4203	19.9722
11.3952	16.7485
11.3702	13.5199
11.3454	10.6972
11.3206	8.60028
11.2959	7.29298
11.2714	6.79834
11.2469	7.00674
11.2226	7.87581
11.1983	9.18115
11.1742	10.783
11.1502	12.8927
11.1263	15.369
11.1024	18.4259
11.0787	21.8815
11.0551	25.3508
11.0316	28.534
11.0081	31.1096
10.9848	33.0101
10.9616	34.4411
10.9385	35.3552
10.9154	35.9173
10.8925	36.2672
10.8697	36.3606
10.8469	36.3391
10.8243	36.2054
10.8017	35.8947
10.7793	35.7261
10.7569	35.815
10.7346	36.2328
10.7125	37.081
10.6904	38.1006
10.6684	38.8564
10.6465	39.4093
10.6247	39.8731
10.6029	40.2082
10.5813	40.239
10.5597	40.2013
10.5383	40.3501
10.5169	40.7184
10.4956	41.3481
10.4744	42.2084
10.4533	43.3656
10.4323	44.6346
10.4113	45.7434
10.3904	46.8053
10.3697	47.7279
10.349	48.1831
10.3284	48.149
10.3078	47.8383
10.2874	47.2968
10.267	46.613
10.2467	45.8569
10.2265	45.0614
10.2064	44.2909
10.1863	43.479
10.1663	42.4954
10.1464	41.4039
10.1266	40.2176
10.1069	38.8878
10.0872	37.2394
10.0676	35.4353
10.0481	33.5762
10.0287	31.4692
10.0093	29.2006
9.99005	26.7466
9.97084	24.1793
9.95169	21.7564
9.93263	19.4949
9.91364	17.481
9.89472	15.6939
9.87587	14.219
9.8571	12.7859
9.83839	11.2052
9.81976	9.83848
9.80119	8.45312
9.78271	7.13134
9.76428	6.18327
9.74592	5.33958
9.72764	4.45995
9.70943	3.62572
9.69128	2.98135
9.6732	2.56391
9.65518	2.0938
9.63724	1.70953
9.61935	1.37466
9.60155	1.14453
9.5838	0.902185
9.56611	0.715944
9.5485	0.556855
9.53094	0.507731
9.51345	0.514555
9.49604	0.429954
9.47867	0.325876
9.46137	0.343038
9.44414	0.297376
9.42697	0.0565351
9.40986	-0.0744729
9.39281	-0.0117851
9.37583	0.0840287
9.35891	0.0986067
9.34204	0.0814527
9.32524	0.117313
9.3085	0.179983
9.29182	0.156276
9.27519	0.181524
9.25863	0.103927
9.24213	0.155741
9.22568	0.20379
9.2093	0.312385
9.19297	0.229703
9.17669	0.0186038
9.16048	0.0444417
9.14433	0.142713
9.12823	0.175034
9.11218	0.23876
9.0962	0.283138
9.08027	0.297563
9.06439	0.289944
9.04858	0.319336
9.03281	0.275009
9.0171	0.229434
9.00145	0.26487
8.98585	0.304984
8.9703	0.352376
8.9548	0.265065
8.93937	0.195
8.92398	0.333421
8.90865	0.443328
8.89337	0.504589
8.87814	0.445636
8.86296	0.294672
8.84784	0.31771
8.83277	0.305326
8.81774	0.382661
8.80277	0.518294
8.78786	0.55413
8.77298	0.567384
8.75816	0.581832
8.7434	0.61205
8.72868	0.687542
8.714	0.699054
8.69938	0.538144
8.68481	0.535359
8.67029	0.671969
8.65581	0.631352
8.64139	0.689692
8.62701	0.736838
8.61268	0.681217
8.5984	0.753682
8.58416	0.703245
8.56997	0.710995
8.55583	0.82121
8.54174	0.891712
8.52769	0.885955
8.51368	0.830377
8.49973	0.775315
8.48582	0.846572
8.47195	0.907476
8.45813	0.990995
8.44436	1.05731
8.43062	1.09416
8.41693	1.0541
8.4033	1.00364
8.3897	0.982965
8.37614	0.941918
8.36264	0.867967
8.34917	1.04909
8.33574	1.10409
8.32236	0.958236
8.30903	1.07742
8.29573	1.22158
8.28248	1.17661
8.26927	1.1087
8.2561	1.05526
8.24298	1.17712
8.2299	1.35866
8.21685	1.36246
8.20385	1.34059
8.19089	1.32221
8.17797	1.42232
8.16509	1.41942
8.15225	1.39088
8.13946	1.40105
8.1267	1.3973
8.11398	1.43491
8.10131	1.4453
8.08867	1.45075
8.07606	1.48762
8.0635	1.52765
8.05099	1.55997
8.0385	1.539
8.02606	1.61854
8.01366	1.6891
8.00129	1.58461
7.98896	1.48221
7.97667	1.521
7.96442	1.61253
7.9522	1.6437
7.94002	1.72164
7.92788	1.74873
7.91578	1.79015
7.90371	1.74322
7.89168	1.62762
7.87969	1.62411
7.86773	1.68203
7.85581	1.70713
7.84392	1.65364
7.83207	1.73874
7.82026	1.83931
7.80849	1.78276
7.79674	1.71919
7.78503	1.76271
7.77337	1.88608
7.76173	1.90054
7.75012	1.84663
7.73856	1.80853
7.72703	1.77493
7.71553	1.88376
7.70406	1.96711
7.69263	1.95358
7.68123	2.01005
7.66987	2.03008
7.65855	2.01308
7.64725	2.02028
7.63598	2.03059
7.62475	2.00568
7.61356	2.01653
7.60239	2.04697
7.59126	2.02782
7.58017	2.077
7.5691	2.07579
7.55806	2.13302
7.54707	2.17111
7.5361	2.06508
7.52516	2.05376
7.51425	2.14244
7.50338	2.20818
7.49253	2.21621
7.48172	2.14302
7.47094	2.12377
7.46019	2.23933
7.44947	2.27361
7.43879	2.25032
7.42813	2.28743
7.4175	2.33469
7.4069	2.33046
7.39634	2.3478
7.3858	2.40309
7.37529	2.41746
7.36482	2.40654
7.35437	2.39682
7.34396	2.45975
7.33357	2.56819
7.32321	2.53295
7.31288	2.53327
7.30258	2.56207
7.29231	2.55009
7.28207	2.51062
7.27185	2.4523
7.26167	2.48236
7.25152	2.55578
7.24139	2.55918
7.23129	2.61634
7.22122	2.66856
7.21117	2.63506
7.20116	2.56297
7.19117	2.56545
7.18121	2.6813
7.17128	2.78721
7.16137	2.76985
7.1515	2.71946
7.14164	2.76291
7.13182	2.82116
7.12203	2.83102
7.11225	2.85091
7.10251	2.85493
7.0928	2.86752
7.08311	2.90944
7.07344	2.91987
7.06381	2.93416
7.0542	2.99519
7.04461	3.1091
7.03506	3.122
7.02552	3.06337
7.01601	3.09798
7.00653	3.23161
6.99708	3.2983
6.98765	3.21951
6.97824	3.15268
6.96886	3.2229
6.95951	3.40081
6.95018	3.39804
6.94087	3.26718
6.9316	3.32277
6.92234	3.43228
6.91311	3.48074
6.90391	3.60441
6.89473	3.72804
6.88557	3.75304
6.87644	3.83838
6.86733	4.16692
6.85824	4.39723
6.84918	4.36219
6.84015	4.37296
6.83114	4.4633
6.82215	4.50582
6.81319	4.5181
6.80424	4.64758
6.79532	4.92529
6.78643	5.08072
6.77756	5.09757
6.76871	5.0142
6.75989	5.01914
6.75109	5.17389
6.74231	5.19537
6.73355	5.26057
6.72482	5.43858
6.71611	5.53344
6.70742	5.58876
6.69875	5.5326
6.69011	5.60089
6.68149	5.68656
6.67289	5.6941
6.66431	5.70104
6.65576	5.67798
6.64722	5.93888
6.63871	6.32171
6.63022	6.26077
6.62175	6.111
6.61331	6.07607
6.60488	6.07843
6.59648	6.32678
6.5881	6.50643
6.57974	6.65362
6.5714	6.8579
6.56308	6.76379
6.55478	6.76001
6.54651	6.82556
6.53825	6.89391
6.53001	7.05973
6.5218	7.31603
6.51361	7.35133
6.50544	7.49279
6.49729	7.92542
6.48915	8.01214
6.48104	7.73948
6.47295	7.65689
6.46488	7.58155
6.45683	7.57104
6.4488	7.63977
6.44079	7.70246
6.4328	7.74516
6.42482	7.75144
6.41687	8.055
6.40894	7.91183
6.40103	7.44638
6.39314	7.37347
6.38526	7.39345
6.37741	7.51839
6.36957	7.70196
6.36176	7.62044
6.35396	7.65472
6.34618	7.84929
6.33843	7.70978
6.33069	7.50968
6.32297	7.51298
6.31527	7.53169
6.30758	7.49569
6.29992	7.40643
6.29227	7.37794
6.28465	7.33179
6.27704	7.25603
6.26945	7.29879
6.26188	7.29186
6.25432	7.20472
6.24679	7.14422
6.23927	7.02224
6.23177	6.86624
6.22429	6.74903
6.21683	6.65538
6.20938	6.59695
6.20195	6.43195
6.19454	6.32358
6.18715	6.38449
6.17978	6.14802
6.17242	5.81846
6.16508	5.74567
6.15776	5.56033
6.15045	5.33212
6.14317	5.18364
6.1359	4.95829
6.12864	4.722
6.12141	4.60756
6.11419	4.59303
6.10699	4.39165
6.0998	4.17347
6.09263	4.04682
6.08549	3.83312
6.07835	3.71047
6.07123	3.63981
6.06413	3.46894
6.05705	3.37661
6.04998	3.51786
6.04293	3.36716
6.0359	3.1907
6.02888	3.18846
6.02187	3.14534
6.01489	3.06707
6.00792	3.00631
6.00096	2.91323
5.99403	2.87816
5.98711	2.8717
5.9802	2.86518
5.97331	2.87281
5.96644	2.83116
5.95958	2.78432
5.95274	2.77869
5.94591	2.77839
5.9391	2.90136
5.9323	2.88292
5.92552	2.71818
5.91876	2.58901
5.91201	2.58707
5.90528	2.63324
5.89856	2.75511
5.89186	2.8078
5.88517	2.91135
5.8785	2.86197
5.87184	2.70564
5.8652	2.72762
5.85857	2.71906
5.85196	2.72329
5.84536	2.76793
5.83878	2.85873
5.83221	2.89171
5.82566	2.93876
5.81912	2.93393
5.81259	2.80529
5.80608	2.7772
5.79959	2.84032
5.79311	2.92028
5.78665	2.89856
5.78019	2.85016
5.77376	2.91289
5.76734	3.06253
5.76093	3.08126
5.75453	3.06701
5.74815	3.08715
5.74179	3.06195
5.73543	3.1607
5.7291	3.17984
5.72277	3.12505
5.71646	3.17548
5.71017	3.306
5.70389	3.35259
5.69762	3.31505
5.69136	3.27342
5.68513	3.29349
5.6789	3.45377
5.67268	3.55499
5.66648	3.52101
5.6603	3.51541
5.65413	3.67623
5.64797	3.86763
5.64182	3.90067
5.63569	3.84305
5.62957	3.80694
5.62347	3.78767
5.61737	3.8395
5.61129	3.8945
5.60522	3.97426
5.59917	3.96976
5.59313	3.86618
5.5871	3.94222
5.58109	4.10619
5.57509	4.1163
5.5691	4.03911
5.56312	4.03906
5.55716	4.03681
5.55121	4.02757
5.54528	4.01961
5.53935	4.03486
5.53344	4.0618
5.52754	4.09304
5.52166	4.16643
5.51578	4.16263
5.50992	4.10011
5.50407	4.11339
5.49823	4.06926
5.49241	3.9966
5.4866	4.00659
5.4808	4.06704
5.47501	4.04655
5.46923	4.10366
5.46347	4.20123
5.45772	4.16196
5.45198	4.17615
5.44625	4.25785
5.44054	4.32772
5.43484	4.3662
5.42914	4.36843
5.42347	4.45968
5.4178	4.53762
5.41214	4.56917
5.4065	4.57145
5.40087	4.61788
5.39525	4.65707
5.38964	4.71824
5.38404	4.82209
5.37846	4.91835
5.37288	4.98941
5.36732	5.1146
5.36177	5.22367
5.35623	5.39693
5.35071	5.52912
5.34519	5.56472
5.33968	5.62333
5.33419	5.64276
5.32871	5.74916
5.32324	6.04978
5.31778	6.22598
5.31233	6.34538
5.30689	6.56934
5.30147	6.77661
5.29605	7.09746
5.29065	7.42789
5.28525	7.59607
5.27987	7.8209
5.2745	8.12169
5.26914	8.42437
5.26379	8.67575
5.25845	8.90286
5.25312	9.10254
5.24781	9.26768
5.2425	9.437
5.23721	9.60517
5.23192	9.61672
5.22665	9.75627
5.22138	9.97786
5.21613	10.1352
5.21089	10.2369
5.20566	10.2526
5.20044	10.3274
5.19522	10.42
5.19002	10.48
5.18483	10.5619
5.17965	10.5925
5.17448	10.7122
5.16933	10.8538
5.16418	10.8887
5.15904	10.9546
5.15391	11.1024
5.14879	11.2054
5.14368	11.2336
5.13859	11.2865
5.1335	11.3988
5.12842	11.4674
5.12335	11.536
5.1183	11.631
5.11325	11.6821
5.10821	11.8198
5.10318	12.02
5.09817	12.018
5.09316	12.0027
5.08816	12.1207
5.08317	12.2705
5.07819	12.3576
5.07322	12.3711
5.06826	12.4106
5.06331	12.5518
5.05837	12.5993
5.05344	12.5718
5.04852	12.6779
5.04361	12.8079
5.03871	12.8525
5.03382	12.9447
5.02894	12.9908
5.02406	13.0902
5.0192	13.1946
5.01435	13.1927
5.0095	13.2336
5.00467	13.3181
4.99984	13.4291
4.99502	13.5666
4.99021	13.6525
4.98542	13.7246
4.98063	13.7769
4.97585	13.842
4.97108	13.9753
4.96632	14.0669
4.96156	14.1444
4.95682	14.2419
4.95209	14.2669
4.94736	14.2932
4.94264	14.3638
4.93794	14.4584
4.93324	14.58
4.92855	14.6695
4.92387	14.6732
4.9192	14.7049
4.91453	14.7458
4.90988	14.8404
4.90524	14.9155
4.9006	14.9784
4.89597	15.0411
4.89135	15.0813
4.88674	15.1619
4.88214	15.1884
4.87755	15.2625
4.87296	15.3485
4.86839	15.3845
4.86382	15.3562
4.85926	15.4201
4.85471	15.4587
4.85017	15.5035
4.84564	15.6217
4.84111	15.6479
4.8366	15.6682
4.83209	15.7902
4.82759	15.8888
4.8231	15.918
4.81862	15.9542
4.81415	16.0627
4.80968	16.2701
4.80522	16.3279
4.80077	16.2436
4.79633	16.2439
4.7919	16.3332
4.78747	16.3886
4.78306	16.4584
4.77865	16.5098
4.77425	16.6079
4.76986	16.6717
4.76547	16.7135
4.7611	16.7676
4.75673	16.8637
4.75237	16.9208
4.74802	16.9826
4.74367	17.0645
4.73934	17.1439
4.73501	17.1508
4.73069	17.1541
4.72638	17.2282
4.72207	17.2651
4.71777	17.3124
4.71348	17.4239
4.7092	17.4918
4.70493	17.5131
4.70066	17.5739
4.69641	17.6621
4.69216	17.6416
4.68791	17.6722
4.68368	17.7177
4.67945	17.7764
4.67523	17.7789
4.67102	17.773
4.66682	17.8495
4.66262	17.8953
4.65843	17.9421
4.65425	18.0399
4.65007	18.0562
4.64591	18.0899
4.64175	18.1145
4.6376	18.0769
4.63345	18.0298
4.62932	18.1165
4.62519	18.2151
4.62106	18.22
4.61695	18.1957
4.61284	18.2488
4.60874	18.2845
4.60465	18.2755
4.60056	18.2962
4.59648	18.3526
4.59241	18.4106
4.58835	18.3797
4.58429	18.352
4.58024	18.3588
4.5762	18.3828
4.57216	18.4681
4.56814	18.5032
4.56411	18.4334
4.5601	18.4697
4.55609	18.5588
4.55209	18.5462
4.5481	18.5821
4.54411	18.6239
4.54013	18.5924
4.53616	18.5602
4.5322	18.5691
4.52824	18.6104
4.52429	18.6663
4.52034	18.6823
4.51641	18.6045
4.51247	18.5266
4.50855	18.6
4.50463	18.6808
4.50072	18.7264
4.49682	18.718
4.49292	18.6727
4.48903	18.6742
4.48515	18.6425
4.48127	18.6459
4.4774	18.6632
4.47354	18.75
4.46968	18.8279
4.46584	18.7491
4.46199	18.6196
4.45815	18.5897
4.45432	18.6576
4.4505	18.6693
4.44668	18.6445
4.44287	18.6391
4.43907	18.6411
4.43527	18.6528
4.43148	18.6057
4.4277	18.5778
4.42392	18.5971
4.42015	18.6398
4.41638	18.5972
4.41262	18.4937
4.40887	18.444
4.40513	18.4838
4.40139	18.5331
4.39765	18.5412
4.39393	18.5122
4.39021	18.5183
4.38649	18.5636
4.38278	18.4715
4.37908	18.4012
4.37539	18.4473
4.3717	18.4264
4.36801	18.3879
4.36434	18.4036
4.36067	18.3835
4.357	18.4031
4.35335	18.4472
4.34969	18.4742
4.34605	18.5217
4.34241	18.5128
4.33877	18.4253
4.33514	18.3955
4.33152	18.3783
4.32791	18.3673
4.3243	18.331
4.32069	18.3175
4.3171	18.2461
4.31351	18.2163
4.30992	18.2802
4.30634	18.3076
4.30277	18.2273
4.2992	18.1796
4.29564	18.149
4.29208	18.176
4.28853	18.1799
4.28499	18.1489
4.28145	18.0303
4.27792	17.9987
4.27439	18.0724
4.27087	18.0965
4.26735	17.9912
4.26384	17.9758
4.26034	17.9995
4.25684	17.9676
4.25335	17.9526
4.24986	17.9388
4.24638	17.8543
4.24291	17.8124
4.23944	17.7824
4.23598	17.7103
4.23252	17.6315
4.22906	17.5707
4.22562	17.5188
4.22218	17.534
4.21874	17.5114
4.21531	17.4395
4.21189	17.391
4.20847	17.3894
4.20506	17.4123
4.20165	17.3211
4.19825	17.2976
4.19485	17.2852
4.19146	17.2412
4.18807	17.1747
4.18469	17.1107
4.18132	17.0669
4.17795	17.0452
4.17458	17.0722
4.17123	17.0605
4.16787	16.9813
4.16453	16.9068
4.16118	16.8701
4.15785	16.818
4.15451	16.8181
4.15119	16.8132
4.14787	16.7612
4.14455	16.7466
4.14124	16.7914
4.13794	16.7915
4.13464	16.7273
4.13134	16.7072
4.12805	16.5895
4.12477	16.4863
4.12149	16.5723
4.11822	16.5687
4.11495	16.416
4.11168	16.3587
4.10843	16.3442
4.10517	16.2962
4.10192	16.2207
4.09868	16.1368
4.09545	16.1343
4.09221	16.0818
4.08899	16.0652
4.08576	16.0541
4.08255	15.9946
4.07933	15.9539
4.07613	15.9228
4.07292	15.843
4.06973	15.7491
4.06654	15.7128
4.06335	15.6962
4.06017	15.6685
4.05699	15.6261
4.05382	15.5562
4.05065	15.5155
4.04749	15.437
4.04433	15.3928
4.04118	15.3488
4.03803	15.364
4.03489	15.3811
4.03175	15.3298
4.02862	15.2967
4.02549	15.2922
4.02237	15.3161
4.01925	15.34
4.01614	15.4131
4.01303	15.5044
4.00993	15.5002
4.00683	15.549
4.00373	15.5204
4.00064	15.5029
3.99756	15.6314
3.99448	15.7761
3.9914	15.7709
3.98833	15.8031
3.98527	15.9449
3.98221	16.0708
3.97915	16.0759
3.9761	16.1247
3.97305	16.179
3.97001	16.1333
3.96697	16.2117
3.96394	16.3309
3.96091	16.2806
3.95789	16.2776
3.95487	16.3938
3.95186	16.5217
3.94885	16.5743
3.94584	16.7197
3.94284	16.847
3.93984	16.8356
3.93685	16.8657
3.93386	16.968
3.93088	16.9233
3.9279	16.8434
3.92493	16.8756
3.92196	16.9231
3.919	16.9384
3.91604	16.9764
3.91308	17.0352
3.91013	17.0386
3.90718	17.0454
3.90424	17.0694
3.9013	17.1678
3.89837	17.2147
3.89544	17.1182
3.89252	17.1255
3.8896	17.2651
3.88668	17.2747
3.88377	17.2746
3.88086	17.3568
3.87796	17.3721
3.87506	17.4286
3.87217	17.449
3.86928	17.387
3.86639	17.3884
3.86351	17.4987
3.86064	17.4517
3.85776	17.3617
3.8549	17.4018
3.85203	17.5218
3.84917	17.5564
3.84631	17.5866
3.84346	17.6791
3.84062	17.7549
3.83777	17.6712
3.83494	17.6019
3.8321	17.5776
3.82927	17.6161
3.82644	17.6271
3.82362	17.7059
3.82081	17.8272
3.81799	17.8428
3.81518	17.8827
3.81238	18.0078
3.80958	18.0623
3.80678	18.0097
3.80399	18.0335
3.8012	18.0257
3.79841	18.1171
3.79563	18.2204
3.79286	18.2433
3.79008	18.2922
3.78731	18.3492
3.78455	18.4103
3.78179	18.4348
3.77903	18.5178
3.77628	18.6649
3.77353	18.7827
3.77079	18.8013
3.76805	18.8146
3.76531	18.8838
3.76258	18.9308
3.75985	18.9402
3.75713	19.0387
3.7544	19.1659
3.75169	19.2912
3.74898	19.3563
3.74627	19.3987
3.74356	19.4403
3.74086	19.6139
3.73816	19.7143
3.73547	19.7465
3.73278	19.8312
3.7301	19.9213
3.72741	19.998
3.72474	20.0753
3.72206	20.2196
3.71939	20.364
3.71673	20.4132
3.71406	20.4169
3.71141	20.4259
3.70875	20.4633
3.7061	20.618
3.70345	20.8274
3.70081	20.8917
3.69817	20.8405
3.69553	20.8953
3.6929	21.107
3.69027	21.2019
3.68765	21.2324
3.68503	21.2416
3.68241	21.2552
3.6798	21.3066
3.67719	21.4474
3.67458	21.5243
3.67198	21.5384
3.66938	21.5289
3.66678	21.5616
3.66419	21.5956
3.66161	21.6231
3.65902	21.6516
3.65644	21.6754
3.65387	21.6815
3.65129	21.6803
3.64872	21.7134
3.64616	21.7462
3.64359	21.8214
3.64103	21.8193
3.63848	21.7409
3.63593	21.713
3.63338	21.6726
3.63084	21.6641
3.6283	21.6315
3.62576	21.6532
3.62322	21.6644
3.62069	21.6306
3.61817	21.5746
3.61564	21.5424
3.61312	21.5079
3.61061	21.5105
3.6081	21.4894
3.60559	21.4369
3.60308	21.3671
3.60058	21.3192
3.59808	21.3404
3.59558	21.3437
3.59309	21.339
3.59061	21.3075
3.58812	21.2304
3.58564	21.1849
3.58316	21.2182
3.58069	21.1825
3.57822	21.1783
3.57575	21.1328
3.57328	21.0594
3.57082	21.1289
3.56836	21.149
3.56591	21.1016
3.56346	21.1605
3.56101	21.1703
3.55857	21.1837
3.55613	21.2243
3.55369	21.1907
3.55126	21.0813
3.54883	21.0866
3.5464	21.1769
3.54397	21.1518
3.54155	21.1367
3.53914	21.1174
3.53672	21.1001
3.53431	21.1151
3.5319	21.1578
3.5295	21.1517
3.5271	21.1386
3.5247	21.1477
3.52231	21.1721
3.51991	21.2177
3.51753	21.1692
3.51514	21.1012
3.51276	21.1251
3.51038	21.1494
3.50801	21.1855
3.50563	21.2226
3.50327	21.3065
3.5009	21.3334
3.49854	21.3035
3.49618	21.2777
3.49382	21.3429
3.49147	21.3664
3.48912	21.3509
3.48677	21.431
3.48443	21.6015
3.48209	21.6486
3.47975	21.6591
3.47742	21.6568
3.47509	21.6669
3.47276	21.8367
3.47044	21.9172
3.46812	21.9237
3.4658	22.0169
3.46348	22.0552
3.46117	22.0625
3.45886	22.0508
3.45656	22.1122
3.45425	22.1597
3.45195	22.1891
3.44966	22.2251
3.44736	22.3019
3.44507	22.304
3.44279	22.349
3.4405	22.4283
3.43822	22.4568
3.43594	22.5855
3.43367	22.6601
3.43139	22.6677
3.42912	22.6712
3.42686	22.7366
3.42459	22.7913
3.42233	22.7174
3.42007	22.7902
3.41782	22.908
3.41557	23.0398
3.41332	23.1593
3.41108	23.2149
3.40883	23.4048
3.40659	23.51
3.40435	23.5681
3.40212	23.7725
3.39989	23.9017
3.39766	23.9771
3.39544	24.0588
3.39322	24.1035
3.391	24.2357
3.38878	24.3824
3.38657	24.4851
3.38436	24.5964
3.38215	24.6979
3.37994	24.6937
3.37774	24.7194
3.37554	24.8122
3.37335	24.9364
3.37115	25.1134
3.36896	25.249
3.36678	25.3507
3.36459	25.5092
3.36241	25.6306
3.36023	25.7127
3.35805	25.9066
3.35588	25.9962
3.35371	26.0302
3.35154	26.1246
3.34938	26.2212
3.34721	26.3441
3.34505	26.4723
3.3429	26.6193
3.34074	26.8005
3.33859	26.917
3.33644	27.0001
3.3343	27.1056
3.33215	27.1886
3.33001	27.2957
3.32788	27.4824
3.32574	27.6005
3.32361	27.6325
3.32148	27.6684
3.31936	27.8153
3.31723	28.0173
3.31511	28.1116
3.31299	28.2289
3.31088	28.4243
3.30876	28.5487
3.30665	28.6221
3.30455	28.6859
3.30244	28.7298
3.30034	28.8539
3.29824	29.0425
3.29614	29.2419
3.29405	29.2535
3.29196	29.2956
3.28987	29.4528
3.28778	29.4687
3.2857	29.4738
3.28362	29.6028
3.28154	29.8962
3.27946	30.0251
3.27739	30.0833
3.27532	30.2556
3.27325	30.3883
3.27119	30.4845
3.26913	30.5918
3.26707	30.6468
3.26501	30.6978
3.26295	30.8364
3.2609	31.0171
3.25885	31.1173
3.2568	31.1431
3.25476	31.2875
3.25272	31.4702
3.25068	31.6143
3.24864	31.6432
3.24661	31.747
3.24458	31.9933
3.24255	32.1155
3.24052	32.1233
3.2385	32.165
3.23648	32.2663
3.23446	32.3808
3.23244	32.5587
3.23043	32.6376
3.22841	32.6584
3.2264	32.8094
3.2244	32.9357
3.22239	32.9905
3.22039	33.2245
3.21839	33.3784
3.2164	33.4281
3.2144	33.5888
3.21241	33.6918
3.21042	33.7117
3.20844	33.735
3.20645	33.8092
3.20447	34.0096
3.20249	34.1869
3.20051	34.2662
3.19854	34.2738
3.19657	34.269
3.1946	34.4501
3.19263	34.6396
3.19067	34.6677
3.1887	34.8286
3.18674	34.9536
3.18479	35.0376
3.18283	35.1417
3.18088	35.2921
3.17893	35.3997
3.17698	35.3421
3.17504	35.4775
3.17309	35.7618
3.17115	35.8897
3.16921	35.9387
3.16728	36.0209
3.16534	36.0621
3.16341	36.1655
3.16148	36.3122
3.15956	36.363
3.15763	36.4005
3.15571	36.5588
3.15379	36.6749
3.15187	36.7465
3.14996	36.9077
3.14805	37.0512
3.14614	37.0606
3.14423	37.1173
3.14232	37.2351
3.14042	37.3509
3.13852	37.4527
3.13662	37.5249
3.13472	37.5885
3.13283	37.6448
3.13094	37.7857
3.12905	37.966
3.12716	38.0727
3.12528	38.1074
3.12339	38.1558
3.12151	38.2121
3.11964	38.327
3.11776	38.5049
3.11589	38.6103
3.11401	38.624
3.11214	38.7319
3.11028	38.9257
3.10841	39.0223
3.10655	39.0388
3.10469	39.0733
3.10283	39.1594
3.10098	39.3092
3.09912	39.4756
3.09727	39.5123
3.09542	39.5429
3.09358	39.5936
3.09173	39.5526
3.08989	39.6605
3.08805	39.8684
3.08621	39.9262
3.08437	40.0036
3.08254	40.1173
3.08071	40.2405
3.07888	40.394
3.07705	40.481
3.07523	40.4198
3.0734	40.4638
3.07158	40.6379
3.06977	40.7072
3.06795	40.7341
3.06613	40.8213
3.06432	40.899
3.06251	40.9509
3.0607	41.016
3.0589	41.011
3.0571	41.1071
3.05529	41.2906
3.05349	41.3293
3.0517	41.3465
3.0499	41.467
3.04811	41.5257
3.04632	41.4899
3.04453	41.5803
3.04274	41.7576
3.04096	41.8317
3.03918	41.7903
3.0374	41.7741
3.03562	41.8416
3.03384	41.9694
3.03207	42.0735
3.03029	42.196
3.02852	42.1841
3.02676	42.209
3.02499	42.1962
3.02323	42.2233
3.02146	42.3099
3.0197	42.3926
3.01795	42.3064
3.01619	42.3169
3.01444	42.3964
3.01269	42.4579
3.01094	42.4355
3.00919	42.4509
3.00744	42.5466
3.0057	42.5921
3.00396	42.6385
3.00222	42.7551
3.00048	42.8204
2.99875	42.8858
2.99701	42.9345
2.99528	42.9543
2.99355	42.973
2.99183	42.9812
2.9901	42.9792
2.98838	43.0861
2.98666	43.1166
2.98494	43.1815
2.98322	43.2429
2.9815	43.2666
2.97979	43.3452
2.97808	43.4836
2.97637	43.4915
2.97466	43.631
2.97295	43.6381
2.97125	43.604
2.96955	43.7316
2.96785	43.7606
2.96615	43.7035
2.96446	43.7399
2.96276	43.7596
2.96107	43.8637
2.95938	43.9769
2.95769	43.98
2.95601	44.0228
2.95432	44.0365
2.95264	43.9561
2.95096	43.9634
2.94928	44.1583
2.9476	44.2925
2.94593	44.2522
2.94425	44.2318
2.94258	44.2284
2.94092	44.2752
2.93925	44.4145
2.93758	44.4321
2.93592	44.4469
2.93426	44.4503
2.9326	44.4794
2.93094	44.4865
2.92928	44.4989
2.92763	44.5525
2.92598	44.6673
2.92433	44.7137
2.92268	44.7321
2.92103	44.7252
2.91939	44.8047
2.91775	44.8574
2.9161	44.8995
2.91447	45.0199
2.91283	45.0448
2.91119	45.0257
2.90956	45.0235
2.90793	44.9568
2.9063	44.8664
2.90467	45.031
2.90304	45.1165
2.90142	45.117
2.89979	45.0869
2.89817	45.0574
2.89656	45.1135
2.89494	45.1038
2.89332	45.118
2.89171	45.2404
2.8901	45.2443
2.88849	45.2404
2.88688	45.2637
2.88527	45.3308
2.88367	45.3781
2.88206	45.3842
2.88046	45.4801
2.87886	45.4772
2.87727	45.4552
2.87567	45.517
2.87408	45.5571
2.87248	45.6492
2.87089	45.6824
2.8693	45.6111
2.86772	45.7069
2.86613	45.8494
2.86455	45.827
2.86297	45.7323
2.86139	45.7827
2.85981	45.8509
2.85823	45.919
2.85666	46.017
2.85508	46.069
2.85351	46.1411
2.85194	45.975
2.85038	45.867
2.84881	45.8745
2.84724	46.0322
2.84568	45.9462
2.84412	45.9139
2.84256	46.0654
2.841	46.1705
2.83945	46.0428
2.83789	45.8878
2.83634	45.7984
2.83479	45.8292
2.83324	45.7419
2.83169	45.6707
2.83015	45.6381
2.82861	45.3639
2.82706	45.2322
2.82552	45.326
2.82398	45.283
2.82245	45.2189
2.82091	45.2634
2.81938	45.1374
2.81784	44.8847
2.81631	44.8215
2.81479	44.6942
2.81326	44.4612
2.81173	44.3023
2.81021	44.2176
2.80869	44.168
2.80716	44.1626
2.80565	44.2703
2.80413	44.6203
2.80261	44.6672
2.8011	44.2929
2.79959	44.0437
2.79808	43.776
2.79657	43.5004
2.79506	43.3687
2.79355	43.2696
2.79205	43.0665
2.79055	42.7366
2.78904	42.7161
2.78754	42.8524
2.78605	42.2822
2.78455	41.3358
2.78306	40.7268
2.78156	40.1905
2.78007	39.4466
2.77858	38.7214
2.77709	38.0345
2.77561	37.3606
2.77412	36.8603
2.77264	36.5506
2.77116	36.4198
2.76968	35.9956
2.7682	35.4427
2.76672	34.6907
2.76524	33.8631
2.76377	33.1507
2.7623	32.0758
2.76083	30.4583
2.75936	29.115
2.75789	28.3282
2.75642	28.3194
2.75496	28.3477
2.7535	28.0199
2.75203	28.7411
2.75057	29.879
2.74912	31.5152
2.74766	33.0628
2.7462	34.0808
2.74475	35.0089
2.7433	36.2382
2.74185	37.7541
2.7404	38.5308
2.73895	37.5797
2.7375	35.5734
2.73606	34.234
2.73462	33.3591
2.73318	32.0304
2.73174	30.8451
2.7303	30.1973
2.72886	30.8327
2.72742	33.3637
2.72599	37.1121
2.72456	40.6365
2.72313	42.6471
2.7217	44.8606
2.72027	47.0061
2.71884	46.979
2.71742	46.8178
2.71599	46.3656
2.71457	45.6326
2.71315	45.6465
2.71173	47.9405
2.71032	50.4518
2.7089	51.6975
2.70748	52.4607
2.70607	53.1434
2.70466	53.8865
2.70325	54.5412
2.70184	55.3427
2.70043	55.6463
2.69903	55.713
2.69762	56.2412
2.69622	57.1514
2.69482	58.1303
2.69342	58.4625
2.69202	57.9041
2.69062	57.7765
2.68923	58.0774
2.68783	58.4193
2.68644	58.7935
2.68505	58.9321
2.68366	59.0263
2.68227	58.8826
2.68089	59.0879
2.6795	60.1174
2.67812	60.4893
2.67673	60.7478
2.67535	60.243
2.67397	59.6758
2.6726	59.8702
2.67122	61.7852
2.66984	62.1895
2.66847	60.9771
2.6671	61.8168
2.66572	62.0932
2.66435	61.3021
2.66299	60.2379
2.66162	60.3303
2.66025	60.5158
2.65889	60.4204
2.65753	60.0003
2.65616	60.1979
2.65481	60.2851
2.65345	60.5881
2.65209	60.6851
2.65073	60.3214
2.64938	60.2225
2.64803	60.3179
2.64667	60.6099
2.64532	60.8267
2.64397	60.5743
2.64263	60.6213
2.64128	60.5873
2.63994	60.5921
2.63859	60.637
2.63725	60.7406
2.63591	60.77
2.63457	61.1118
2.63323	61.2504
2.6319	61.7688
2.63056	62.8606
2.62923	62.0887
2.62789	61.6953
2.62656	62.2917
2.62523	61.607
2.6239	61.1889
2.62258	61.4348
2.62125	62.5371
2.61993	62.888
2.6186	62.3556
2.61728	63.2158
2.61596	62.9385
2.61464	62.0049
2.61332	62.0021
2.61201	62.0034
2.61069	62.3145
2.60938	62.5827
2.60807	62.6579
2.60675	63.3644
2.60544	64.109
2.60414	63.3313
2.60283	62.7076
2.60152	62.5848
2.60022	62.4392
2.59891	62.3658
2.59761	62.7943
2.59631	64.3309
2.59501	66.3397
2.59371	65.0062
2.59242	63.0655
2.59112	62.6758
2.58983	62.9576
2.58853	63.4256
2.58724	63.6978
2.58595	63.3937
2.58466	64.0027
2.58338	64.1854
2.58209	63.543
2.5808	63.4538
2.57952	62.9485
2.57824	63.1396
2.57695	63.701
2.57567	63.4681
2.5744	63.7501
2.57312	64.137
2.57184	63.5081
2.57057	63.9246
2.56929	64.128
2.56802	63.5296
2.56675	63.3688
2.56548	63.8963
2.56421	64.5137
2.56294	64.6451
2.56168	64.556
2.56041	64.1445
2.55915	63.6417
2.55789	63.5037
2.55662	63.5181
2.55536	63.5746
2.5541	63.8636
2.55285	64.1997
2.55159	64.1015
2.55034	63.852
2.54908	63.7036
2.54783	63.8733
2.54658	63.9809
2.54533	64.0064
2.54408	64.2421
2.54283	64.3894
2.54159	64.0892
2.54034	63.9243
2.5391	64.1146
2.53785	64.2358
2.53661	64.1814
2.53537	64.0168
2.53413	64.0085
2.53289	64.3276
2.53166	64.4709
2.53042	64.4184
2.52919	64.3923
2.52795	64.4176
2.52672	64.398
2.52549	64.3118
2.52426	64.2719
2.52303	64.2539
2.52181	64.2016
2.52058	64.361
2.51936	64.5645
2.51813	64.511
2.51691	64.5878
2.51569	64.7736
2.51447	64.804
2.51325	64.8021
2.51203	64.6951
2.51082	64.6321
2.5096	64.6784
2.50839	64.7042
2.50717	64.7867
2.50596	64.8983
2.50475	64.9338
2.50354	64.8629
2.50233	64.7938
2.50113	64.917
2.49992	64.9582
2.49872	64.9676
2.49751	65.0313
2.49631	65.1256
2.49511	65.2155
2.49391	65.1265
2.49271	65.0744
2.49151	65.227
2.49031	65.3227
2.48912	65.3353
2.48792	65.2848
2.48673	65.2844
2.48554	65.2477
2.48435	65.2993
2.48316	65.343
2.48197	65.3654
2.48078	65.4412
2.4796	65.5124
2.47841	65.5935
2.47723	65.7104
2.47604	65.7605
2.47486	65.7707
2.47368	65.7981
2.4725	65.898
2.47132	65.8494
2.47014	65.745
2.46897	65.6965
2.46779	65.8223
2.46662	65.8834
2.46545	65.8884
2.46427	65.9197
2.4631	65.9704
2.46193	65.9875
2.46077	66.1947
2.4596	66.3361
2.45843	66.3303
2.45727	66.2861
2.4561	66.3276
2.45494	66.3117
2.45378	66.1676
2.45262	66.0674
2.45146	66.1862
2.4503	66.2855
2.44914	66.3559
2.44799	66.3823
2.44683	66.333
2.44568	66.3762
2.44452	66.4978
2.44337	66.6222
2.44222	66.625
2.44107	66.4947
2.43992	66.5581
2.43877	66.6728
2.43763	66.632
2.43648	66.5411
2.43534	66.5409
2.43419	66.5907
2.43305	66.5619
2.43191	66.5812
2.43077	66.7585
2.42963	66.7317
2.42849	66.7679
2.42736	66.836
2.42622	66.8427
2.42509	66.8445
2.42395	66.8074
2.42282	66.8044
2.42169	66.9514
2.42056	66.9996
2.41943	67.0542
2.4183	67.0955
2.41717	67.0089
2.41605	67.0811
2.41492	67.0424
2.4138	66.8898
2.41267	66.9209
2.41155	67.1475
2.41043	67.2654
2.40931	67.1427
2.40819	67.1067
2.40707	67.2082
2.40595	67.2121
2.40484	67.2883
2.40372	67.2685
2.40261	67.313
2.4015	67.3924
2.40039	67.2255
2.39928	67.2122
2.39817	67.3302
2.39706	67.3618
2.39595	67.3858
2.39484	67.4192
2.39374	67.4475
2.39263	67.3959
2.39153	67.3367
2.39043	67.4487
2.38932	67.5599
2.38822	67.5953
2.38712	67.637
2.38603	67.5515
2.38493	67.4834
2.38383	67.4709
2.38274	67.4592
2.38164	67.5253
2.38055	67.6361
2.37946	67.6317
2.37836	67.5122
2.37727	67.5275
2.37618	67.6103
2.3751	67.543
2.37401	67.4481
2.37292	67.5367
2.37184	67.5887
2.37075	67.5304
2.36967	67.5378
2.36859	67.5521
2.3675	67.511
2.36642	67.6113
2.36534	67.8206
2.36427	67.7808
2.36319	67.6405
2.36211	67.6647
2.36104	67.6619
2.35996	67.6955
2.35889	67.7025
2.35781	67.6607
2.35674	67.7652
2.35567	67.8705
2.3546	67.8522
2.35353	67.8636
2.35247	67.699
2.3514	67.7666
2.35033	67.8913
2.34927	67.8929
2.3482	67.9116
2.34714	67.9628
2.34608	68.0004
2.34502	68.0889
2.34396	68.176
2.3429	68.1727
2.34184	68.1723
2.34078	68.2374
2.33973	68.3804
2.33867	68.3974
2.33762	68.3822
2.33656	68.3759
2.33551	68.3891
2.33446	68.538
2.33341	68.6573
2.33236	68.5459
2.33131	68.4412
2.33026	68.4262
2.32922	68.5124
2.32817	68.6686
2.32712	68.7679
2.32608	68.8669
2.32504	68.9457
2.324	68.9021
2.32295	68.8518
2.32191	68.7661
2.32087	68.8146
2.31984	68.9581
2.3188	68.9552
2.31776	69.0189
2.31673	69.0655
2.31569	68.9789
2.31466	69.0143
2.31362	69.1253
2.31259	69.1511
2.31156	69.2219
2.31053	69.2745
2.3095	69.2796
2.30847	69.2202
2.30745	69.2083
2.30642	69.1237
2.3054	69.1447
2.30437	69.2702
2.30335	69.4039
2.30232	69.4865
2.3013	69.3289
2.30028	69.2347
2.29926	69.4036
2.29824	69.4214
2.29722	69.4944
2.29621	69.5754
2.29519	69.5801
2.29417	69.5882
2.29316	69.5338
2.29215	69.5573
2.29113	69.686
2.29012	69.731
2.28911	69.7898
2.2881	69.7208
2.28709	69.643
2.28608	69.6881
2.28507	69.8861
2.28407	69.9741
2.28306	69.9645
2.28206	69.9985
2.28105	69.9507
2.28005	69.9146
2.27905	69.9754
2.27805	69.9448
2.27705	69.923
2.27605	69.927
2.27505	69.8897
2.27405	69.8012
2.27305	69.9109
2.27206	70.1952
2.27106	70.1154
2.27007	70.0319
2.26907	70.0704
2.26808	70.1584
2.26709	70.1738
2.2661	70.2761
2.26511	70.2811
2.26412	70.169
2.26313	70.1262
2.26214	70.2025
2.26116	70.3009
2.26017	70.3322
2.25919	70.2467
2.2582	70.3244
2.25722	70.4525
2.25624	70.4606
2.25526	70.5391
2.25428	70.6124
2.2533	70.5674
2.25232	70.6197
2.25134	70.6845
2.25036	70.7018
2.24939	70.6641
2.24841	70.5202
2.24744	70.5006
2.24646	70.5677
2.24549	70.5036
2.24452	70.5998
2.24355	70.7711
2.24257	70.8621
2.24161	70.9956
2.24064	71.0363
2.23967	70.9936
2.2387	71.0246
2.23774	70.8764
2.23677	70.7919
2.23581	70.825
2.23484	70.8719
2.23388	70.9744
2.23292	71.0015
2.23196	71.044
2.231	71.0757
2.23004	71.1679
2.22908	71.1566
2.22812	71.144
2.22716	71.1024
2.22621	71.094
2.22525	71.107
2.2243	71.0632
2.22334	71.1524
2.22239	71.2907
2.22144	71.2516
2.22049	71.3078
2.21953	71.3504
2.21859	71.3326
2.21764	71.4312
2.21669	71.437
2.21574	71.3466
2.21479	71.321
2.21385	71.3819
2.2129	71.5977
2.21196	71.6216
2.21102	71.4966
2.21007	71.5486
2.20913	71.6416
2.20819	71.606
2.20725	71.5802
2.20631	71.5597
2.20537	71.4715
2.20444	71.5323
2.2035	71.7095
2.20256	71.7925
2.20163	71.766
2.20069	71.7401
2.19976	71.7883
2.19883	71.7452
2.19789	71.7653
2.19696	71.9206
2.19603	71.9826
2.1951	72.0529
2.19417	72.0664
2.19325	72.0242
2.19232	71.9227
2.19139	71.8844
2.19047	72.0111
2.18954	71.9429
2.18862	71.9311
2.18769	72.0072
2.18677	72.1353
2.18585	72.328
2.18493	72.4178
2.18401	72.3897
2.18309	72.2733
2.18217	72.2692
2.18125	72.3779
2.18033	72.5044
2.17942	72.5088
2.1785	72.6059
2.17759	72.6527
2.17667	72.6124
2.17576	72.6082
2.17485	72.5821
2.17393	72.5704
2.17302	72.4271
2.17211	72.5803
2.1712	72.8206
2.17029	72.9566
2.16939	73.0313
2.16848	72.7232
2.16757	72.8379
2.16667	72.9275
2.16576	72.8385
2.16486	72.8408
2.16395	72.9996
2.16305	73.1399
2.16215	73.0879
2.16125	72.9705
2.16035	73.1484
2.15945	73.2615
2.15855	73.2693
2.15765	73.1909
2.15675	73.1831
2.15586	73.2219
2.15496	73.1965
2.15406	73.1916
2.15317	73.2823
2.15228	73.5241
2.15138	73.6478
2.15049	73.5322
2.1496	73.5661
2.14871	73.4597
2.14782	73.3395
2.14693	73.3874
2.14604	73.5382
2.14515	73.5914
2.14427	73.6758
2.14338	73.8277
2.14249	73.7691
2.14161	73.8247
2.14072	73.8723
2.13984	73.7501
2.13896	73.707
2.13808	73.8179
2.13719	73.9972
2.13631	74.034
2.13543	73.9344
2.13455	73.9118
2.13368	74.0215
2.1328	74.1492
2.13192	74.0235
2.13105	74.042
2.13017	74.1592
2.1293	74.1853
2.12842	74.0947
2.12755	74.0551
2.12668	74.1156
2.1258	74.3427
2.12493	74.4297
2.12406	74.267
2.12319	74.2106
2.12232	74.4362
2.12145	74.4619
2.12059	74.2308
2.11972	74.233
2.11885	74.3007
2.11799	74.5143
2.11712	74.5521
2.11626	74.47
2.1154	74.4616
2.11453	74.3269
2.11367	74.4696
2.11281	74.6496
2.11195	74.669
2.11109	74.6143
2.11023	74.544
2.10937	74.7324
2.10851	74.824
2.10766	74.7284
2.1068	74.7089
2.10594	74.6922
2.10509	74.6756
2.10423	74.753
2.10338	74.7709
2.10253	74.6102
2.10168	74.6947
2.10082	74.8535
2.09997	74.7544
2.09912	74.6478
2.09827	74.8543
2.09742	75.134
2.09658	75.1556
2.09573	74.9402
2.09488	74.765
2.09404	74.8641
2.09319	74.9387
2.09235	74.6329
2.0915	74.663
2.09066	74.7803
2.08982	74.754
2.08897	74.9258
2.08813	75.2374
2.08729	75.5121
2.08645	75.3968
2.08561	75.3486
2.08477	75.1855
2.08394	75.0856
2.0831	75.023
2.08226	75.2016
2.08143	75.4598
2.08059	75.4356
2.07976	75.2758
2.07892	75.0962
2.07809	74.9979
2.07726	75.1769
2.07643	75.2672
2.07559	75.2202
2.07476	75.5034
2.07393	75.4632
2.0731	75.1129
2.07228	75.2344
2.07145	75.5867
2.07062	75.5276
2.06979	75.1928
2.06897	75.2614
2.06814	75.2866
2.06732	75.1913
2.06649	75.4796
2.06567	75.8264
2.06485	75.6005
2.06403	75.231
2.0632	75.442
2.06238	75.7965
2.06156	75.7334
2.06074	75.5202
2.05993	75.4777
2.05911	75.6319
2.05829	75.865
2.05747	75.8635
2.05666	75.7767
2.05584	75.7025
2.05503	75.6624
2.05421	75.6983
2.0534	75.7365
2.05259	75.91
2.05177	75.8418
2.05096	75.7662
2.05015	75.9031
2.04934	76.1253
2.04853	76.1711
2.04772	76.0252
2.04691	75.8028
2.04611	75.7374
2.0453	75.7994
2.04449	75.7567
2.04369	75.7955
2.04288	75.8135
2.04208	75.7586
2.04127	75.8054
2.04047	75.8388
2.03967	75.9516
2.03886	76.0425
2.03806	75.9501
2.03726	76.071
2.03646	76.1201
2.03566	76.0829
2.03486	76.2013
2.03407	76.0766
2.03327	76.0339
2.03247	75.963
2.03167	75.9093
2.03088	76.0405
2.03008	76.2228
2.02929	76.3761
2.0285	76.2823
2.0277	76.2045
2.02691	76.1019
2.02612	76.0403
2.02533	76.0533
2.02453	76.1104
2.02374	76.2929
2.02295	76.3067
2.02217	76.2546
2.02138	76.3439
2.02059	76.3872
2.0198	76.3406
2.01902	76.1679
2.01823	76.0547
2.01744	76.181
2.01666	76.5306
2.01588	76.6165
2.01509	76.539
2.01431	76.4516
2.01353	76.2758
2.01275	76.1902
2.01196	76.2082
2.01118	76.3794
2.0104	76.5932
2.00963	76.4394
2.00885	76.3374
2.00807	76.3031
2.00729	76.3759
2.00651	76.378
2.00574	76.2593
2.00496	76.2219
2.00419	76.2326
2.00341	76.1686
2.00264	76.3063
2.00187	76.5298
2.00109	76.7329
2.00032	76.6953
