Name: Red-orange sandy soil
Type:  Soils
Class: Aridisol
Subclass: 
Particle Size:  see additional information
Sample No.: fgg018
Owner:  University of NSW
Wavelength range:  All
Origin: Fowlers Gap, western New South Wales, Australia
Hewson(1998) PhD thesis
Description: Parent material consists of chiefly aeolian silts/clays. 

Physiography: Resistant quartzite ridges/hilltops.



Measurement: Directional hemispherical reflectance 
First Column:  X
Second Column:  Y
X Units:  Wavelength (micrometers)
Y Units:  Reflectance (percent)
First X Value:  14.0131
Last X Value:  2.00032
Number of X Values:  2223
Additional information:  fgg018a.txt
	
14.0131	1.13738
13.9753	1.13284
13.9377	1.26113
13.9004	1.29232
13.8632	1.34240
13.8262	1.42638
13.7895	1.44065
13.7529	1.62101
13.7165	1.64957
13.6803	1.70974
13.6443	1.79573
13.6085	1.56067
13.5729	1.55390
13.5374	1.68433
13.5022	1.66282
13.4671	1.71547
13.4322	1.58868
13.3975	1.50158
13.3630	1.54029
13.3286	1.66505
13.2944	1.68893
13.2604	1.83463
13.2266	1.86180
13.1930	1.69495
13.1595	1.67256
13.1262	1.65292
13.0930	1.52348
13.0600	1.57279
13.0272	1.59813
12.9946	1.66191
12.9621	1.77767
12.9298	1.80069
12.8976	1.80838
12.8656	1.80265
12.8337	1.92704
12.8021	2.06638
12.7705	1.97644
12.7391	1.79842
12.7079	1.71409
12.6769	1.59012
12.6459	1.53465
12.6152	1.70991
12.5845	1.84289
12.5541	1.71059
12.5238	1.60457
12.4936	1.59259
12.4635	1.62133
12.4337	1.51996
12.4039	1.38893
12.3743	1.36824
12.3448	1.43154
12.3155	1.41503
12.2863	1.38905
12.2573	1.47729
12.2284	1.58845
12.1996	1.63592
12.1710	1.59281
12.1425	1.44016
12.1141	1.58077
12.0859	1.79806
12.0578	1.82458
12.0298	1.71429
12.0019	1.75209
11.9742	1.78989
11.9466	1.77915
11.9192	1.86047
11.8918	2.02584
11.8646	2.05665
11.8375	2.04703
11.8106	2.07901
11.7837	2.16113
11.7570	2.22920
11.7304	2.31955
11.7039	2.42988
11.6776	2.39073
11.6513	2.43104
11.6252	2.37394
11.5992	2.29866
11.5733	2.30490
11.5475	2.24931
11.5219	2.27226
11.4963	2.37251
11.4709	2.34662
11.4455	2.37004
11.4203	2.43191
11.3952	2.36804
11.3702	2.14115
11.3454	2.08159
11.3206	2.21723
11.2959	2.15137
11.2714	2.24015
11.2469	2.38668
11.2226	2.39199
11.1983	2.32450
11.1742	2.29486
11.1502	2.42238
11.1263	2.46417
11.1024	2.46296
11.0787	2.44630
11.0551	2.38304
11.0316	2.36701
11.0081	2.37435
10.9848	2.46122
10.9616	2.43895
10.9385	2.41816
10.9154	2.40357
10.8925	2.37221
10.8697	2.26217
10.8469	2.23634
10.8243	2.14486
10.8017	2.23582
10.7793	2.28965
10.7569	2.21498
10.7346	2.14977
10.7125	2.11389
10.6904	2.15046
10.6684	2.16666
10.6465	2.20199
10.6247	2.26920
10.6029	2.42317
10.5813	2.39890
10.5597	2.39973
10.5383	2.54600
10.5169	2.66793
10.4956	2.71374
10.4744	2.66245
10.4533	2.66876
10.4323	2.73222
10.4113	2.68543
10.3904	2.51653
10.3697	2.69419
10.3490	3.04609
10.3284	3.22754
10.3078	3.10091
10.2874	3.09253
10.2670	3.23289
10.2467	3.24587
10.2265	3.14800
10.2064	3.32213
10.1863	3.62818
10.1663	3.66506
10.1464	3.62499
10.1266	3.66918
10.1069	3.74778
10.0872	3.86342
10.0676	4.07336
10.0481	4.37913
10.0287	4.46433
10.0093	4.43771
9.9901	4.49556
9.9708	4.62534
9.9517	4.71336
9.9326	4.82147
9.9136	5.05944
9.8947	5.19102
9.8759	5.14353
9.8571	5.07880
9.8384	4.98561
9.8198	5.11361
9.8012	5.37384
9.7827	5.47446
9.7643	5.56699
9.7459	5.73484
9.7276	5.90188
9.7094	6.11939
9.6913	6.27854
9.6732	6.34994
9.6552	6.51074
9.6372	6.73952
9.6194	6.92434
9.6016	6.98933
9.5838	6.96947
9.5661	6.96624
9.5485	7.11777
9.5309	7.32341
9.5135	7.39160
9.4960	7.29084
9.4787	7.36044
9.4614	7.36126
9.4441	7.27712
9.4270	7.48305
9.4099	7.75300
9.3928	7.72530
9.3758	7.59138
9.3589	7.61636
9.3420	7.69484
9.3252	7.75899
9.3085	7.57205
9.2918	7.42142
9.2752	7.34266
9.2586	7.18253
9.2421	7.01304
9.2257	6.87082
9.2093	6.78935
9.1930	6.59777
9.1767	6.42543
9.1605	6.26463
9.1443	6.02480
9.1282	5.89464
9.1122	5.88189
9.0962	5.95454
9.0803	5.91162
9.0644	5.62822
9.0486	5.47398
9.0328	5.36165
9.0171	5.34469
9.0015	5.39995
8.9859	5.51417
8.9703	5.52947
8.9548	5.43363
8.9394	5.45655
8.9240	5.74756
8.9087	6.06900
8.8934	6.22757
8.8781	6.25647
8.8630	6.14662
8.8478	6.21041
8.8328	6.23810
8.8177	6.08834
8.8028	6.17990
8.7879	6.25491
8.7730	6.13272
8.7582	6.03782
8.7434	5.96589
8.7287	5.94092
8.7140	5.80038
8.6994	5.76032
8.6848	5.72453
8.6703	5.47693
8.6558	5.14785
8.6414	4.89343
8.6270	4.79336
8.6127	5.00493
8.5984	5.30493
8.5842	5.59379
8.5700	5.83915
8.5558	5.94175
8.5417	5.97150
8.5277	6.00175
8.5137	6.19564
8.4997	6.20953
8.4858	6.07356
8.4720	6.18131
8.4581	6.39697
8.4444	6.55395
8.4306	6.65720
8.4169	6.73002
8.4033	6.81095
8.3897	6.86079
8.3761	6.90497
8.3626	7.14809
8.3492	7.39810
8.3357	7.48987
8.3224	7.56818
8.3090	7.73290
8.2957	7.88336
8.2825	8.14191
8.2693	8.23006
8.2561	8.26420
8.2430	8.51465
8.2299	8.54801
8.2169	8.53507
8.2039	8.55523
8.1909	8.54217
8.1780	8.49502
8.1651	8.38855
8.1523	8.07754
8.1395	7.70446
8.1267	7.37710
8.1140	6.93939
8.1013	6.47874
8.0887	6.04935
8.0761	5.76024
8.0635	5.47680
8.0510	5.11215
8.0385	4.88926
8.0261	4.69959
8.0137	4.41824
8.0013	4.17830
7.9890	4.02083
7.9767	3.88976
7.9644	3.76516
7.9522	3.56029
7.9400	3.39666
7.9279	3.18473
7.9158	2.96631
7.9037	2.82731
7.8917	2.74373
7.8797	2.67236
7.8677	2.55497
7.8558	2.44447
7.8439	2.34254
7.8321	2.29253
7.8203	2.29439
7.8085	2.32812
7.7967	2.29543
7.7850	2.22358
7.7734	2.21366
7.7617	2.27653
7.7501	2.25152
7.7386	2.22191
7.7270	2.15441
7.7155	2.07684
7.7041	2.05568
7.6926	2.01511
7.6812	2.05835
7.6699	2.09930
7.6586	2.06055
7.6473	2.00246
7.6360	1.97478
7.6248	1.99636
7.6136	1.98268
7.6024	1.97212
7.5913	1.99279
7.5802	1.94133
7.5691	1.95892
7.5581	1.98586
7.5471	1.93492
7.5361	1.96677
7.5252	1.98657
7.5143	1.95825
7.5034	1.96170
7.4925	1.92952
7.4817	1.99379
7.4709	2.02884
7.4602	1.98557
7.4495	1.95059
7.4388	1.97436
7.4281	1.99222
7.4175	2.06466
7.4069	2.10877
7.3963	2.11234
7.3858	2.05866
7.3753	1.98209
7.3648	2.02735
7.3544	2.10837
7.3440	2.14865
7.3336	2.08081
7.3232	1.97034
7.3129	2.04899
7.3026	2.14445
7.2923	2.13728
7.2821	2.08599
7.2719	2.05165
7.2617	2.09598
7.2515	2.07638
7.2414	2.12809
7.2313	2.24229
7.2212	2.23602
7.2112	2.24100
7.2012	2.32030
7.1912	2.41528
7.1812	2.34040
7.1713	2.21678
7.1614	2.19270
7.1515	2.27199
7.1416	2.31206
7.1318	2.34567
7.1220	2.33699
7.1123	2.38756
7.1025	2.48945
7.0928	2.48869
7.0831	2.39925
7.0734	2.36836
7.0638	2.29500
7.0542	2.24003
7.0446	2.29951
7.0351	2.45917
7.0255	2.53613
7.0160	2.47798
7.0065	2.46844
6.9971	2.45615
6.9877	2.48096
6.9782	2.53430
6.9689	2.70956
6.9595	2.78297
6.9502	2.71989
6.9409	2.68861
6.9316	2.71890
6.9223	2.76007
6.9131	2.84469
6.9039	2.89493
6.8947	2.90777
6.8856	2.94516
6.8764	3.00580
6.8673	3.06585
6.8582	3.09018
6.8492	2.96952
6.8402	2.95113
6.8311	2.98260
6.8222	2.98046
6.8132	3.01825
6.8042	3.04895
6.7953	3.04158
6.7864	3.05275
6.7776	3.13550
6.7687	3.15440
6.7599	3.16724
6.7511	3.14942
6.7423	3.10380
6.7336	3.13575
6.7248	3.15960
6.7161	3.18527
6.7074	3.10434
6.6988	3.05383
6.6901	3.07973
6.6815	3.18852
6.6729	3.27041
6.6643	3.30834
6.6558	3.34425
6.6472	3.35245
6.6387	3.25992
6.6302	3.17135
6.6218	3.20658
6.6133	3.17496
6.6049	3.06346
6.5965	3.06790
6.5881	3.06595
6.5797	2.99187
6.5714	2.97058
6.5631	2.85477
6.5548	2.83110
6.5465	2.95701
6.5383	2.97616
6.5300	3.01380
6.5218	3.04370
6.5136	3.08194
6.5054	3.21871
6.4973	3.30622
6.4892	3.30370
6.4810	3.34898
6.4730	3.41492
6.4649	3.43105
6.4568	3.40971
6.4488	3.45511
6.4408	3.49070
6.4328	3.45572
6.4248	3.51449
6.4169	3.61637
6.4089	3.63731
6.4010	3.47431
6.3931	3.33816
6.3853	3.33553
6.3774	3.35493
6.3696	3.29994
6.3618	3.21186
6.3540	3.20744
6.3462	3.18497
6.3384	3.12074
6.3307	2.90348
6.3230	2.78884
6.3153	2.78274
6.3076	2.66984
6.2999	2.54978
6.2923	2.51073
6.2847	2.45815
6.2770	2.38405
6.2695	2.38661
6.2619	2.40014
6.2543	2.32828
6.2468	2.18891
6.2393	2.07163
6.2318	1.98193
6.2243	1.92437
6.2168	1.97675
6.2094	1.97158
6.2020	1.84460
6.1945	1.75573
6.1872	1.71920
6.1798	1.71109
6.1724	1.69881
6.1651	1.63062
6.1578	1.59702
6.1505	1.57253
6.1432	1.55274
6.1359	1.62424
6.1286	1.71394
6.1214	1.68233
6.1142	1.56744
6.1070	1.59851
6.0998	1.71332
6.0926	1.69301
6.0855	1.59370
6.0784	1.59160
6.0712	1.54251
6.0641	1.45657
6.0571	1.55838
6.0500	1.73355
6.0429	1.68346
6.0359	1.56383
6.0289	1.61678
6.0219	1.67178
6.0149	1.69118
6.0079	1.71874
6.0010	1.76317
5.9940	1.78199
5.9871	1.76620
5.9802	1.81102
5.9733	1.84945
5.9664	1.88602
5.9596	1.93465
5.9527	1.98628
5.9459	2.07945
5.9391	2.17286
5.9323	2.20324
5.9255	2.23444
5.9188	2.29160
5.9120	2.37129
5.9053	2.57799
5.8986	2.81377
5.8919	2.88778
5.8852	2.97732
5.8785	3.22860
5.8718	3.44048
5.8652	3.48344
5.8586	3.64003
5.8520	3.85755
5.8454	4.01025
5.8388	4.18152
5.8322	4.39930
5.8257	4.51112
5.8191	4.63931
5.8126	4.88195
5.8061	5.05664
5.7996	5.10266
5.7931	5.20699
5.7867	5.41138
5.7802	5.57321
5.7738	5.76311
5.7673	5.94086
5.7609	6.04032
5.7545	6.11943
5.7482	6.26589
5.7418	6.39097
5.7354	6.52452
5.7291	6.68207
5.7228	6.82620
5.7165	6.96602
5.7102	7.03335
5.7039	7.02913
5.6976	7.08942
5.6914	7.15627
5.6851	7.17747
5.6789	7.19250
5.6727	7.10423
5.6665	6.93787
5.6603	6.77909
5.6541	6.64132
5.6480	6.45468
5.6418	6.27779
5.6357	6.11135
5.6296	5.91729
5.6235	5.84531
5.6174	5.76979
5.6113	5.70403
5.6052	5.69266
5.5992	5.67675
5.5931	5.61235
5.5871	5.62871
5.5811	5.71056
5.5751	5.69220
5.5691	5.59210
5.5631	5.59755
5.5572	5.73501
5.5512	5.81557
5.5453	5.85727
5.5394	5.99598
5.5334	6.09658
5.5275	6.20594
5.5217	6.29375
5.5158	6.38056
5.5099	6.51596
5.5041	6.60953
5.4982	6.69535
5.4924	6.87465
5.4866	6.98613
5.4808	7.06858
5.4750	7.20598
5.4692	7.32058
5.4635	7.39953
5.4577	7.43891
5.4520	7.48307
5.4463	7.52442
5.4405	7.47209
5.4348	7.39950
5.4291	7.28806
5.4235	7.14771
5.4178	6.97465
5.4121	6.73049
5.4065	6.53041
5.4009	6.28831
5.3953	5.92945
5.3896	5.67839
5.3840	5.51122
5.3785	5.34785
5.3729	5.16651
5.3673	5.07225
5.3618	5.00939
5.3562	4.88023
5.3507	4.90690
5.3452	4.93414
5.3397	4.94912
5.3342	5.00790
5.3287	5.04385
5.3232	5.11444
5.3178	5.18922
5.3123	5.22090
5.3069	5.22291
5.3015	5.28466
5.2961	5.40994
5.2907	5.57184
5.2853	5.64702
5.2799	5.68552
5.2745	5.83350
5.2691	6.03178
5.2638	6.20991
5.2585	6.43254
5.2531	6.61336
5.2478	6.85637
5.2425	7.12850
5.2372	7.39883
5.2319	7.67183
5.2267	7.89444
5.2214	8.12717
5.2161	8.39399
5.2109	8.62277
5.2057	8.76067
5.2004	8.90565
5.1952	8.98827
5.1900	9.03040
5.1848	9.01179
5.1797	8.93520
5.1745	8.94751
5.1693	9.00866
5.1642	9.00320
5.1590	8.95516
5.1539	8.98316
5.1488	8.96551
5.1437	8.88730
5.1386	8.86337
5.1335	8.94980
5.1284	8.96815
5.1234	8.96391
5.1183	8.96848
5.1133	9.02745
5.1082	9.09477
5.1032	9.12121
5.0982	9.00099
5.0932	8.79476
5.0882	8.75207
5.0832	8.76615
5.0782	8.67905
5.0732	8.61112
5.0683	8.59499
5.0633	8.55149
5.0584	8.52448
5.0534	8.57929
5.0485	8.59234
5.0436	8.57475
5.0387	8.56295
5.0338	8.55782
5.0289	8.54579
5.0241	8.60189
5.0192	8.62820
5.0144	8.58161
5.0095	8.65130
5.0047	8.73688
4.9998	8.73941
4.9950	8.82935
4.9902	8.90335
4.9854	9.02944
4.9806	9.26612
4.9759	9.53753
4.9711	9.77588
4.9663	10.02330
4.9616	10.29800
4.9568	10.60070
4.9521	10.86070
4.9474	11.06190
4.9426	11.14760
4.9379	11.22270
4.9332	11.35770
4.9286	11.54710
4.9239	11.72250
4.9192	11.91540
4.9145	12.19330
4.9099	12.60220
4.9052	13.09970
4.9006	13.59330
4.8960	14.07160
4.8914	14.47890
4.8867	14.90420
4.8821	15.30860
4.8776	15.62080
4.8730	15.91520
4.8684	16.18830
4.8638	16.39380
4.8593	16.59280
4.8547	16.78860
4.8502	17.01040
4.8456	17.16910
4.8411	17.21850
4.8366	17.24630
4.8321	17.33880
4.8276	17.53240
4.8231	17.68290
4.8186	17.77820
4.8142	17.83220
4.8097	17.86020
4.8052	17.95840
4.8008	18.01570
4.7963	18.02130
4.7919	18.09730
4.7875	18.21870
4.7831	18.32970
4.7787	18.31410
4.7743	18.36650
4.7699	18.49870
4.7655	18.49140
4.7611	18.52740
4.7567	18.60650
4.7524	18.63940
4.7480	18.66830
4.7437	18.68970
4.7393	18.73510
4.7350	18.90100
4.7307	18.94100
4.7264	18.88670
4.7221	18.88350
4.7178	18.89340
4.7135	18.87740
4.7092	18.80050
4.7049	18.75520
4.7007	18.75350
4.6964	18.71210
4.6922	18.61190
4.6879	18.49330
4.6837	18.42610
4.6795	18.44610
4.6752	18.58710
4.6710	18.79160
4.6668	18.84230
4.6626	18.92750
4.6584	19.07110
4.6543	19.20200
4.6501	19.42270
4.6459	19.52770
4.6418	19.54620
4.6376	19.65220
4.6335	19.78830
4.6293	19.90500
4.6252	20.00250
4.6211	20.09410
4.6170	20.12340
4.6128	20.21130
4.6087	20.30860
4.6047	20.35810
4.6006	20.44010
4.5965	20.59000
4.5924	20.68080
4.5884	20.66720
4.5843	20.62550
4.5802	20.61870
4.5762	20.67850
4.5722	20.73100
4.5681	20.79720
4.5641	20.83740
4.5601	20.86190
4.5561	20.90750
4.5521	20.91170
4.5481	20.89910
4.5441	20.86170
4.5401	20.85190
4.5362	20.87520
4.5322	20.83660
4.5282	20.65480
4.5243	20.48590
4.5203	20.45500
4.5164	20.37960
4.5125	20.25910
4.5086	20.15970
4.5046	20.02250
4.5007	20.02770
4.4968	19.96610
4.4929	19.83350
4.4890	19.78200
4.4852	19.81710
4.4813	19.77570
4.4774	19.71760
4.4735	19.77340
4.4697	19.88030
4.4658	19.87420
4.4620	19.83600
4.4582	19.96510
4.4543	20.16220
4.4505	20.30020
4.4467	20.37850
4.4429	20.45440
4.4391	20.52600
4.4353	20.61440
4.4315	20.67970
4.4277	20.70520
4.4239	20.77510
4.4202	20.92860
4.4164	21.03390
4.4126	21.14370
4.4089	21.27590
4.4051	21.40350
4.4014	21.49910
4.3977	21.63000
4.3939	21.79150
4.3902	21.95930
4.3865	22.03800
4.3828	22.03780
4.3791	22.22050
4.3754	22.41020
4.3717	22.58340
4.3680	22.73250
4.3643	22.75320
4.3607	22.82040
4.3570	22.98280
4.3534	23.10960
4.3497	23.20540
4.3461	23.27970
4.3424	23.34460
4.3388	23.42240
4.3351	23.43980
4.3315	23.43340
4.3279	23.49910
4.3243	23.54150
4.3207	23.60950
4.3171	23.66570
4.3135	23.65130
4.3099	23.71320
4.3063	23.87310
4.3028	23.90360
4.2992	23.88670
4.2956	23.81880
4.2921	23.76430
4.2885	23.85910
4.2850	23.99540
4.2815	23.99870
4.2779	23.98120
4.2744	24.03070
4.2709	24.04320
4.2674	24.04370
4.2638	24.11520
4.2603	24.25410
4.2568	24.36140
4.2534	24.44540
4.2499	24.54360
4.2464	24.61910
4.2429	24.68660
4.2394	24.75890
4.2360	24.77850
4.2325	24.83140
4.2291	24.94650
4.2256	25.04300
4.2222	25.04450
4.2187	25.09500
4.2153	25.21580
4.2119	25.28840
4.2085	25.26870
4.2051	25.27010
4.2017	25.28770
4.1983	25.30780
4.1949	25.41670
4.1915	25.51120
4.1881	25.57270
4.1847	25.63670
4.1813	25.69980
4.1780	25.67670
4.1746	25.72800
4.1712	25.77810
4.1679	25.90130
4.1645	26.02490
4.1612	26.07210
4.1579	26.13770
4.1545	26.14250
4.1512	26.17950
4.1479	26.22310
4.1446	26.29370
4.1412	26.41720
4.1379	26.46500
4.1346	26.51340
4.1313	26.54070
4.1281	26.61720
4.1248	26.67320
4.1215	26.69830
4.1182	26.76880
4.1150	26.79430
4.1117	26.93610
4.1084	27.03330
4.1052	27.01820
4.1019	26.98640
4.0987	27.04610
4.0955	27.16360
4.0922	27.20830
4.0890	27.20240
4.0858	27.25420
4.0826	27.34450
4.0793	27.41930
4.0761	27.50900
4.0729	27.50330
4.0697	27.49050
4.0665	27.57820
4.0634	27.59340
4.0602	27.61620
4.0570	27.69450
4.0538	27.70500
4.0507	27.69590
4.0475	27.72580
4.0443	27.77920
4.0412	27.77500
4.0380	27.79520
4.0349	27.86750
4.0318	27.96660
4.0286	28.01320
4.0255	27.91300
4.0224	27.88650
4.0193	27.90620
4.0161	27.89790
4.0130	27.89450
4.0099	27.95480
4.0068	28.02830
4.0037	28.08530
4.0006	28.13730
3.9976	28.11370
3.9945	28.00300
3.9914	28.01330
3.9883	28.03710
3.9853	28.06410
3.9822	28.08700
3.9792	28.14410
3.9761	28.21690
3.9731	28.20660
3.9700	28.18760
3.9670	28.18720
3.9639	28.22040
3.9609	28.22700
3.9579	28.18450
3.9549	28.23270
3.9519	28.25500
3.9489	28.19560
3.9458	28.18260
3.9428	28.21470
3.9398	28.24770
3.9369	28.24340
3.9339	28.21740
3.9309	28.19190
3.9279	28.27580
3.9249	28.33730
3.9220	28.32700
3.9190	28.28850
3.9160	28.22080
3.9131	28.23310
3.9101	28.19930
3.9072	28.09610
3.9042	28.01130
3.9013	27.99190
3.8984	27.96380
3.8954	27.97270
3.8925	27.94670
3.8896	27.83890
3.8867	27.81860
3.8838	27.86680
3.8809	27.88710
3.8780	27.86970
3.8751	27.77480
3.8722	27.62380
3.8693	27.56220
3.8664	27.51910
3.8635	27.46590
3.8606	27.47030
3.8578	27.37180
3.8549	27.25220
3.8520	27.24040
3.8492	27.32610
3.8463	27.34550
3.8435	27.29650
3.8406	27.27680
3.8378	27.19050
3.8349	27.04750
3.8321	27.00400
3.8293	27.02370
3.8264	27.05390
3.8236	26.99430
3.8208	26.87200
3.8180	26.80440
3.8152	26.69740
3.8124	26.56830
3.8096	26.49820
3.8068	26.48510
3.8040	26.49080
3.8012	26.38310
3.7984	26.31620
3.7956	26.31480
3.7929	26.29840
3.7901	26.27200
3.7873	26.10740
3.7846	25.98890
3.7818	25.91080
3.7790	25.81300
3.7763	25.69610
3.7735	25.59960
3.7708	25.54100
3.7681	25.52020
3.7653	25.44610
3.7626	25.38960
3.7599	25.30510
3.7571	25.15290
3.7544	24.98670
3.7517	24.81030
3.7490	24.75690
3.7463	24.79360
3.7436	24.70150
3.7409	24.57210
3.7382	24.48520
3.7355	24.40510
3.7328	24.36480
3.7301	24.32230
3.7274	24.25170
3.7247	24.19150
3.7221	24.12840
3.7194	24.07290
3.7167	23.91680
3.7141	23.70900
3.7114	23.63710
3.7088	23.59270
3.7061	23.55170
3.7035	23.51940
3.7008	23.46520
3.6982	23.37620
3.6955	23.29290
3.6929	23.18320
3.6903	23.01730
3.6877	22.85040
3.6850	22.80600
3.6824	22.78590
3.6798	22.70020
3.6772	22.68730
3.6746	22.64580
3.6720	22.45530
3.6694	22.37200
3.6668	22.41600
3.6642	22.34910
3.6616	22.19550
3.6590	22.11270
3.6564	22.01570
3.6539	21.93930
3.6513	21.90380
3.6487	21.72800
3.6462	21.58760
3.6436	21.58190
3.6410	21.51090
3.6385	21.39710
3.6359	21.31690
3.6334	21.20660
3.6308	21.10510
3.6283	21.02280
3.6258	20.90390
3.6232	20.78690
3.6207	20.76700
3.6182	20.69420
3.6156	20.52760
3.6131	20.38310
3.6106	20.34710
3.6081	20.19640
3.6056	20.01580
3.6031	20.02610
3.6006	20.00210
3.5981	19.81760
3.5956	19.60580
3.5931	19.50560
3.5906	19.46460
3.5881	19.42280
3.5856	19.35200
3.5832	19.21590
3.5807	19.06300
3.5782	18.94900
3.5758	18.83420
3.5733	18.70040
3.5708	18.66890
3.5684	18.57200
3.5659	18.42310
3.5635	18.30700
3.5610	18.11180
3.5586	18.03200
3.5561	17.92820
3.5537	17.79380
3.5513	17.71390
3.5488	17.65660
3.5464	17.53620
3.5440	17.39250
3.5416	17.25930
3.5391	17.11750
3.5367	17.03660
3.5343	16.87710
3.5319	16.64690
3.5295	16.54940
3.5271	16.48250
3.5247	16.30070
3.5223	16.09940
3.5199	15.85250
3.5175	15.58130
3.5151	15.28220
3.5128	15.07380
3.5104	14.87860
3.5080	14.67310
3.5056	14.53140
3.5033	14.43830
3.5009	14.48290
3.4985	14.48530
3.4962	14.43040
3.4938	14.35080
3.4915	14.39870
3.4891	14.48000
3.4868	14.42200
3.4844	14.18070
3.4821	14.00010
3.4798	13.92410
3.4774	13.82950
3.4751	13.68120
3.4728	13.60940
3.4704	13.63430
3.4681	13.59740
3.4658	13.49420
3.4635	13.37960
3.4612	13.27110
3.4589	13.13500
3.4566	13.01010
3.4543	12.87490
3.4520	12.79410
3.4497	12.68550
3.4474	12.51540
3.4451	12.41960
3.4428	12.30770
3.4405	12.20850
3.4382	12.08480
3.4359	11.87250
3.4337	11.63200
3.4314	11.46710
3.4291	11.31190
3.4269	11.15140
3.4246	10.96620
3.4223	10.88620
3.4201	10.79270
3.4178	10.65720
3.4156	10.66380
3.4133	10.63940
3.4111	10.52930
3.4088	10.48880
3.4066	10.57750
3.4044	10.64790
3.4021	10.56160
3.3999	10.49530
3.3977	10.49240
3.3954	10.50320
3.3932	10.42880
3.3910	10.34480
3.3888	10.35450
3.3866	10.24990
3.3844	10.15950
3.3822	10.10210
3.3799	10.12660
3.3777	10.07730
3.3755	9.96786
3.3734	9.89423
3.3712	9.78018
3.3690	9.68373
3.3668	9.68436
3.3646	9.74770
3.3624	9.71331
3.3602	9.64038
3.3581	9.65260
3.3559	9.62347
3.3537	9.59807
3.3515	9.53730
3.3494	9.48777
3.3472	9.42869
3.3451	9.31700
3.3429	9.24977
3.3407	9.14569
3.3386	9.06610
3.3364	9.05843
3.3343	9.07967
3.3322	8.98120
3.3300	8.86257
3.3279	8.67764
3.3257	8.62310
3.3236	8.59158
3.3215	8.56836
3.3194	8.45153
3.3172	8.36448
3.3151	8.30645
3.3130	8.22965
3.3109	8.15515
3.3088	8.07850
3.3067	8.01943
3.3046	7.92351
3.3024	7.83153
3.3003	7.62731
3.2982	7.52509
3.2961	7.59529
3.2941	7.58201
3.2920	7.48709
3.2899	7.38619
3.2878	7.32536
3.2857	7.19551
3.2836	7.09200
3.2815	7.02703
3.2795	6.93261
3.2774	6.88841
3.2753	6.84469
3.2733	6.70611
3.2712	6.61507
3.2691	6.56865
3.2671	6.46892
3.2650	6.42548
3.2630	6.48306
3.2609	6.45717
3.2589	6.38237
3.2568	6.27850
3.2548	6.22128
3.2527	6.10825
3.2507	5.99275
3.2486	5.91272
3.2466	5.81465
3.2446	5.79074
3.2426	5.75814
3.2405	5.63840
3.2385	5.61643
3.2365	5.61560
3.2345	5.60834
3.2324	5.61023
3.2304	5.58364
3.2284	5.44144
3.2264	5.34104
3.2244	5.27806
3.2224	5.30460
3.2204	5.22459
3.2184	5.00437
3.2164	4.99594
3.2144	4.97812
3.2124	4.86451
3.2104	4.89667
3.2084	4.97855
3.2065	4.97791
3.2045	4.81081
3.2025	4.71823
3.2005	4.73211
3.1985	4.73922
3.1966	4.60505
3.1946	4.49285
3.1926	4.46545
3.1907	4.30476
3.1887	4.27184
3.1867	4.29725
3.1848	4.21017
3.1828	4.21421
3.1809	4.18606
3.1789	4.16564
3.1770	4.10311
3.1750	3.95927
3.1731	3.87513
3.1712	3.89607
3.1692	3.86950
3.1673	3.81183
3.1653	3.79746
3.1634	3.72216
3.1615	3.75606
3.1596	3.78385
3.1576	3.72495
3.1557	3.70764
3.1538	3.64651
3.1519	3.59836
3.1500	3.57072
3.1481	3.54670
3.1461	3.47070
3.1442	3.41600
3.1423	3.43987
3.1404	3.41246
3.1385	3.24172
3.1366	3.28251
3.1347	3.41462
3.1328	3.39024
3.1309	3.15447
3.1291	3.17004
3.1272	3.22087
3.1253	3.07442
3.1234	2.97922
3.1215	3.09048
3.1196	3.09317
3.1178	3.00746
3.1159	2.99605
3.1140	3.02117
3.1121	2.91762
3.1103	2.90143
3.1084	2.98744
3.1066	2.93803
3.1047	2.96610
3.1028	2.93989
3.1010	2.81788
3.0991	2.76701
3.0973	2.77499
3.0954	2.71367
3.0936	2.61031
3.0917	2.66485
3.0899	2.71819
3.0881	2.67882
3.0862	2.67692
3.0844	2.77203
3.0825	2.82655
3.0807	2.67057
3.0789	2.59033
3.0771	2.59536
3.0752	2.71373
3.0734	2.74444
3.0716	2.61416
3.0698	2.50415
3.0680	2.40796
3.0661	2.46728
3.0643	2.56892
3.0625	2.48475
3.0607	2.49629
3.0589	2.53043
3.0571	2.43449
3.0553	2.47308
3.0535	2.51940
3.0517	2.47040
3.0499	2.49107
3.0481	2.51325
3.0463	2.56452
3.0445	2.60462
3.0427	2.57799
3.0410	2.51102
3.0392	2.49825
3.0374	2.45024
3.0356	2.45040
3.0338	2.43386
3.0321	2.33260
3.0303	2.32993
3.0285	2.36830
3.0268	2.29166
3.0250	2.30732
3.0232	2.25755
3.0215	2.22257
3.0197	2.20820
3.0180	2.21561
3.0162	2.34705
3.0144	2.35075
3.0127	2.25543
3.0109	2.23717
3.0092	2.27413
3.0074	2.26014
3.0057	2.30153
3.0040	2.31103
3.0022	2.11736
3.0005	2.07559
2.9988	2.13838
2.9970	2.25776
2.9953	2.30078
2.9936	2.18530
2.9918	2.15830
2.9901	2.20781
2.9884	2.23880
2.9867	2.20174
2.9849	2.10706
2.9832	2.10129
2.9815	2.11554
2.9798	2.21210
2.9781	2.30473
2.9764	2.21659
2.9747	2.22123
2.9730	2.23153
2.9713	2.18651
2.9696	2.04114
2.9679	2.02934
2.9662	2.09680
2.9645	2.04955
2.9628	2.03833
2.9611	2.03494
2.9594	2.02835
2.9577	2.02910
2.9560	2.10374
2.9543	2.05654
2.9526	2.06790
2.9510	2.17539
2.9493	2.13253
2.9476	2.09752
2.9459	2.12415
2.9443	2.07706
2.9426	1.99051
2.9409	1.93923
2.9393	2.01524
2.9376	2.10434
2.9359	2.01487
2.9343	1.97879
2.9326	1.90794
2.9309	1.96268
2.9293	2.12597
2.9276	2.10067
2.9260	1.97557
2.9243	1.95017
2.9227	2.00639
2.9210	2.07521
2.9194	2.04561
2.9178	2.01145
2.9161	1.97342
2.9145	1.94366
2.9128	2.01546
2.9112	2.14243
2.9096	2.17722
2.9079	2.12602
2.9063	2.15807
2.9047	2.27101
2.9030	2.30885
2.9014	2.12941
2.8998	1.91834
2.8982	1.79601
2.8966	1.87256
2.8949	2.07899
2.8933	2.10969
2.8917	2.19953
2.8901	2.23459
2.8885	2.14125
2.8869	2.18526
2.8853	2.22344
2.8837	2.19306
2.8821	2.16905
2.8805	2.11757
2.8789	2.09351
2.8773	2.13654
2.8757	2.13162
2.8741	2.10500
2.8725	2.27664
2.8709	2.29901
2.8693	2.25167
2.8677	2.27555
2.8661	2.21244
2.8646	2.13232
2.8630	2.14190
2.8614	2.03440
2.8598	1.96487
2.8582	2.10838
2.8567	2.18196
2.8551	2.31318
2.8535	2.45117
2.8519	2.39894
2.8504	2.34904
2.8488	2.43521
2.8472	2.30794
2.8457	2.23275
2.8441	2.24728
2.8426	2.24305
2.8410	2.37667
2.8395	2.34075
2.8379	2.24481
2.8363	2.29243
2.8348	2.32298
2.8332	2.32671
2.8317	2.34915
2.8302	2.48957
2.8286	2.42486
2.8271	2.27297
2.8255	2.26006
2.8240	2.29865
2.8225	2.25532
2.8209	2.22315
2.8194	2.30365
2.8178	2.31507
2.8163	2.18529
2.8148	2.07470
2.8133	2.10358
2.8117	2.19791
2.8102	2.32572
2.8087	2.34144
2.8072	2.29629
2.8057	2.35784
2.8041	2.57188
2.8026	2.58761
2.8011	2.27392
2.7996	2.34640
2.7981	2.23525
2.7966	1.96636
2.7951	1.98046
2.7936	1.92784
2.7921	1.82485
2.7906	1.78688
2.7890	1.90320
2.7875	1.97029
2.7861	2.03775
2.7846	2.01254
2.7831	2.04569
2.7816	2.07019
2.7801	1.93668
2.7786	1.81377
2.7771	1.76141
2.7756	1.79754
2.7741	1.75721
2.7726	1.63269
2.7712	1.63478
2.7697	1.84419
2.7682	1.82186
2.7667	1.76337
2.7652	1.76355
2.7638	1.60143
2.7623	1.35191
2.7608	1.33162
2.7594	1.45794
2.7579	1.56825
2.7564	1.50987
2.7550	1.47999
2.7535	1.53728
2.7520	1.72006
2.7506	1.71816
2.7491	1.64365
2.7477	1.71441
2.7462	1.79290
2.7448	1.90668
2.7433	1.83913
2.7419	1.78201
2.7404	1.79603
2.7390	1.83900
2.7375	1.90537
2.7361	1.96033
2.7346	2.14638
2.7332	2.24611
2.7317	2.35952
2.7303	2.40809
2.7289	2.47370
2.7274	2.60283
2.7260	2.72490
2.7246	2.65514
2.7231	2.69089
2.7217	3.08055
2.7203	3.43444
2.7188	3.60135
2.7174	3.73300
2.7160	3.90750
2.7146	3.97343
2.7132	3.88873
2.7117	3.62253
2.7103	3.17247
2.7089	2.88677
2.7075	2.79165
2.7061	2.60367
2.7047	2.46246
2.7033	2.63038
2.7018	3.06170
2.7004	3.68089
2.6990	4.39199
2.6976	5.16873
2.6962	6.14369
2.6948	7.25305
2.6934	8.29659
2.6920	9.35477
2.6906	10.65050
2.6892	12.10350
2.6878	13.40410
2.6864	14.57330
2.6851	15.56800
2.6837	16.56660
2.6823	17.69420
2.6809	18.54520
2.6795	19.14550
2.6781	19.73460
2.6767	20.43410
2.6754	21.15930
2.6740	21.77930
2.6726	22.38960
2.6712	23.00660
2.6698	23.39240
2.6685	23.70830
2.6671	24.21790
2.6657	24.47560
2.6644	24.79770
2.6630	25.21630
2.6616	25.54020
2.6603	25.82990
2.6589	26.15690
2.6575	26.45350
2.6562	26.76250
2.6548	26.94710
2.6535	27.04730
2.6521	27.30980
2.6507	27.61660
2.6494	27.79350
2.6480	28.00070
2.6467	28.27560
2.6453	28.43940
2.6440	28.59210
2.6426	28.77020
2.6413	28.92550
2.6399	29.12640
2.6386	29.28450
2.6373	29.33150
2.6359	29.55370
2.6346	29.79480
2.6332	29.98010
2.6319	30.11970
2.6306	30.27590
2.6292	30.41400
2.6279	30.51300
2.6266	30.65630
2.6252	30.65820
2.6239	30.70410
2.6226	30.99390
2.6213	31.14660
2.6199	31.17860
2.6186	31.28430
2.6173	31.44410
2.6160	31.52790
2.6146	31.53010
2.6133	31.63000
2.6120	31.70510
2.6107	31.70100
2.6094	31.59830
2.6081	31.66180
2.6068	31.99470
2.6054	32.16910
2.6041	32.16880
2.6028	32.11390
2.6015	32.10900
2.6002	32.14050
2.5989	32.23250
2.5976	32.36460
2.5963	32.43060
2.5950	32.54620
2.5937	32.47430
2.5924	32.38370
2.5911	32.52850
2.5898	32.57450
2.5885	32.56090
2.5872	32.73680
2.5860	32.81580
2.5847	32.75410
2.5834	32.74520
2.5821	32.79650
2.5808	32.87370
2.5795	32.81980
2.5782	32.95350
2.5770	33.14230
2.5757	33.19180
2.5744	33.12280
2.5731	33.02520
2.5718	33.06910
2.5706	33.26850
2.5693	33.30530
2.5680	33.29150
2.5668	33.20750
2.5655	33.26280
2.5642	33.49010
2.5629	33.51050
2.5617	33.58990
2.5604	33.65220
2.5592	33.59940
2.5579	33.55600
2.5566	33.44500
2.5554	33.51490
2.5541	33.65740
2.5529	33.64410
2.5516	33.67290
2.5503	33.71090
2.5491	33.61100
2.5478	33.52360
2.5466	33.66150
2.5453	33.82520
2.5441	33.73610
2.5428	33.64660
2.5416	33.70550
2.5403	33.70190
2.5391	33.69500
2.5379	33.67070
2.5366	33.71810
2.5354	33.94880
2.5341	34.05130
2.5329	33.98770
2.5317	33.95200
2.5304	33.93130
2.5292	33.90950
2.5280	33.96630
2.5267	34.04220
2.5255	34.09060
2.5243	34.19650
2.5230	34.25490
2.5218	34.10440
2.5206	34.01830
2.5194	34.17370
2.5181	34.17290
2.5169	34.16710
2.5157	34.28460
2.5145	34.33310
2.5133	34.36090
2.5120	34.36390
2.5108	34.32750
2.5096	34.34060
2.5084	34.39490
2.5072	34.39930
2.5060	34.37320
2.5048	34.33250
2.5035	34.47470
2.5023	34.63380
2.5011	34.66180
2.4999	34.77670
2.4987	34.80040
2.4975	34.72960
2.4963	34.82230
2.4951	34.96950
2.4939	34.96230
2.4927	34.93560
2.4915	34.97230
2.4903	34.99600
2.4891	35.04680
2.4879	34.99030
2.4867	35.08960
2.4855	35.36040
2.4844	35.38140
2.4832	35.33830
2.4820	35.46650
2.4808	35.63380
2.4796	35.74820
2.4784	35.71180
2.4772	35.80130
2.4760	35.88380
2.4749	35.92520
2.4737	36.05880
2.4725	36.10690
2.4713	35.98710
2.4701	35.94380
2.4690	36.06090
2.4678	36.23290
2.4666	36.29940
2.4655	36.30990
2.4643	36.40160
2.4631	36.56520
2.4619	36.55620
2.4608	36.56550
2.4596	36.66070
2.4584	36.69010
2.4573	36.81020
2.4561	36.89240
2.4549	36.93830
2.4538	36.99340
2.4526	36.99100
2.4515	37.02390
2.4503	37.16330
2.4491	37.29220
2.4480	37.27020
2.4468	37.30060
2.4457	37.46530
2.4445	37.52300
2.4434	37.51860
2.4422	37.66110
2.4411	37.71250
2.4399	37.69120
2.4388	37.99730
2.4376	38.21750
2.4365	38.22980
2.4353	38.17820
2.4342	38.26380
2.4331	38.38870
2.4319	38.60360
2.4308	38.65700
2.4296	38.72430
2.4285	38.90170
2.4274	39.04920
2.4262	39.17610
2.4251	39.21700
2.4240	39.30670
2.4228	39.37310
2.4217	39.33500
2.4206	39.42800
2.4194	39.62410
2.4183	39.76100
2.4172	39.85390
2.4161	40.03960
2.4149	40.16950
2.4138	40.08350
2.4127	40.01900
2.4116	40.13180
2.4104	40.34400
2.4093	40.42200
2.4082	40.52200
2.4071	40.52380
2.4060	40.54410
2.4048	40.62170
2.4037	40.60980
2.4026	40.59360
2.4015	40.61620
2.4004	40.65430
2.3993	40.74840
2.3982	40.89450
2.3971	40.88420
2.3960	40.87010
2.3948	40.83900
2.3937	40.71480
2.3926	40.69990
2.3915	40.80340
2.3904	40.92750
2.3893	40.95920
2.3882	40.96850
2.3871	40.90270
2.3860	40.78480
2.3849	40.83610
2.3838	40.92040
2.3827	40.86160
2.3816	40.89100
2.3806	41.10230
2.3795	41.17020
2.3784	41.16940
2.3773	41.21310
2.3762	41.27060
2.3751	41.37840
2.3740	41.61010
2.3729	41.68760
2.3718	41.59910
2.3708	41.57450
2.3697	41.72110
2.3686	41.78930
2.3675	41.73560
2.3664	41.80850
2.3653	41.98940
2.3643	42.05730
2.3632	42.08570
2.3621	42.16550
2.3610	42.18380
2.3600	42.28010
2.3589	42.31170
2.3578	42.16330
2.3567	42.10330
2.3557	42.17540
2.3546	42.33260
2.3535	42.34650
2.3525	42.23980
2.3514	42.25390
2.3503	42.42610
2.3493	42.51990
2.3482	42.57410
2.3471	42.62210
2.3461	42.78520
2.3450	42.95150
2.3440	43.04920
2.3429	43.16690
2.3418	43.16230
2.3408	43.18270
2.3397	43.31930
2.3387	43.44500
2.3376	43.43510
2.3366	43.50330
2.3355	43.56660
2.3345	43.79840
2.3334	43.92100
2.3324	43.89250
2.3313	44.01300
2.3303	44.15100
2.3292	44.19590
2.3282	44.28650
2.3271	44.37720
2.3261	44.44090
2.3250	44.58510
2.3240	44.66410
2.3230	44.73900
2.3219	44.81200
2.3209	44.99750
2.3198	45.12370
2.3188	45.21330
2.3178	45.22190
2.3167	45.16760
2.3157	45.07470
2.3147	45.12550
2.3136	45.14090
2.3126	45.22520
2.3116	45.29800
2.3105	45.38790
2.3095	45.44020
2.3085	45.58170
2.3075	45.74520
2.3064	45.71900
2.3054	45.69540
2.3044	45.73810
2.3034	45.78530
2.3023	45.96700
2.3013	46.10700
2.3003	46.14160
2.2993	46.13100
2.2982	46.09040
2.2972	46.07100
2.2962	46.17430
2.2952	46.26700
2.2942	46.25470
2.2932	46.29860
2.2922	46.44920
2.2911	46.45850
2.2901	46.39700
2.2891	46.46400
2.2881	46.52080
2.2871	46.58400
2.2861	46.61290
2.2851	46.58330
2.2841	46.60670
2.2831	46.82820
2.2821	46.82570
2.2811	46.83080
2.2801	46.90350
2.2791	46.95760
2.2781	46.97040
2.2771	46.97150
2.2761	46.95680
2.2751	47.03100
2.2741	47.03060
2.2731	47.04080
2.2721	47.10650
2.2711	47.10770
2.2701	47.11050
2.2691	47.08720
2.2681	47.06830
2.2671	47.05280
2.2661	47.08040
2.2651	47.06710
2.2641	46.98440
2.2631	46.89120
2.2621	46.82880
2.2612	46.86910
2.2602	46.79820
2.2592	46.82080
2.2582	46.83950
2.2572	46.74400
2.2562	46.75100
2.2553	46.65590
2.2543	46.57220
2.2533	46.61770
2.2523	46.57500
2.2513	46.46880
2.2504	46.32320
2.2494	46.31370
2.2484	46.41500
2.2474	46.38700
2.2465	46.38440
2.2455	46.34160
2.2445	46.35940
2.2436	46.50360
2.2426	46.44010
2.2416	46.26140
2.2406	46.10720
2.2397	46.06600
2.2387	46.18710
2.2377	46.28750
2.2368	46.27900
2.2358	46.24260
2.2348	46.29780
2.2339	46.32620
2.2329	46.27930
2.2320	46.27900
2.2310	46.25740
2.2300	46.14740
2.2291	46.19610
2.2281	46.25400
2.2272	46.10790
2.2262	45.95510
2.2253	45.87800
2.2243	45.76530
2.2233	45.56520
2.2224	45.41810
2.2214	45.47050
2.2205	45.44400
2.2195	45.22480
2.2186	45.01670
2.2176	44.90690
2.2167	44.81050
2.2157	44.60120
2.2148	44.45080
2.2139	44.13880
2.2129	43.69210
2.2120	43.35610
2.2110	42.91350
2.2101	42.57700
2.2091	42.43400
2.2082	42.52900
2.2073	42.87630
2.2063	43.13520
2.2054	43.44340
2.2044	43.71680
2.2035	44.04300
2.2026	44.44500
2.2016	44.56210
2.2007	44.75680
2.1998	45.12720
2.1988	45.32110
2.1979	45.33650
2.1970	45.58640
2.1960	45.67700
2.1951	45.71500
2.1942	45.77400
2.1933	45.82630
2.1923	45.93330
2.1914	46.12020
2.1905	46.19650
2.1895	46.27410
2.1886	46.36300
2.1877	46.60980
2.1868	46.86800
2.1859	46.87420
2.1849	46.94370
2.1840	47.09680
2.1831	47.26110
2.1822	47.38640
2.1813	47.50450
2.1803	47.60680
2.1794	47.58330
2.1785	47.55490
2.1776	47.53940
2.1767	47.54040
2.1758	47.72240
2.1749	47.96680
2.1739	47.90780
2.1730	47.82850
2.1721	48.01600
2.1712	48.07930
2.1703	47.93800
2.1694	47.93330
2.1685	48.04160
2.1676	48.14850
2.1667	48.28580
2.1658	48.24930
2.1649	48.14450
2.1640	48.21200
2.1631	48.35030
2.1622	48.52110
2.1613	48.56390
2.1604	48.60070
2.1595	48.72370
2.1586	48.76360
2.1577	48.66670
2.1568	48.77710
2.1559	48.95400
2.1550	48.90840
2.1541	49.05900
2.1532	49.41150
2.1523	49.44680
2.1514	49.31250
2.1505	49.38260
2.1496	49.45680
2.1487	49.55660
2.1478	49.71170
2.1469	49.79210
2.1460	49.86370
2.1452	50.03860
2.1443	50.21950
2.1434	50.23760
2.1425	50.36770
2.1416	50.41530
2.1407	50.34970
2.1398	50.44650
2.1390	50.53060
2.1381	50.55290
2.1372	50.56800
2.1363	50.68130
2.1354	50.67740
2.1346	50.61250
2.1337	50.69640
2.1328	50.67480
2.1319	50.63850
2.1311	50.67520
2.1302	50.69600
2.1293	50.64920
2.1284	50.61200
2.1276	50.52980
2.1267	50.50120
2.1258	50.67610
2.1249	50.75910
2.1241	50.80710
2.1232	50.79370
2.1223	50.73360
2.1215	50.60650
2.1206	50.64080
2.1197	50.76000
2.1189	50.80650
2.1180	50.67710
2.1171	50.64270
2.1163	50.67130
2.1154	50.65210
2.1145	50.73850
2.1137	50.73200
2.1128	50.63480
2.1120	50.62100
2.1111	50.54750
2.1102	50.41370
2.1094	50.45580
2.1085	50.46780
2.1077	50.47390
2.1068	50.62160
2.1059	50.76480
2.1051	50.76710
2.1042	50.83460
2.1034	50.95110
2.1025	50.73540
2.1017	50.49100
2.1008	50.54430
2.1000	50.64280
2.0991	50.58270
2.0983	50.43220
2.0974	50.57510
2.0966	50.58080
2.0957	50.47550
2.0949	50.56810
2.0940	50.85650
2.0932	51.02190
2.0924	50.88040
2.0915	50.78540
2.0907	50.85800
2.0898	50.68270
2.0890	50.52090
2.0881	50.63630
2.0873	50.75120
2.0865	50.61670
2.0856	50.47960
2.0848	50.59060
2.0839	50.74450
2.0831	50.66840
2.0823	50.67990
2.0814	50.71070
2.0806	50.70520
2.0798	50.52070
2.0789	50.41120
2.0781	50.55850
2.0773	50.58210
2.0764	50.50940
2.0756	50.61040
2.0748	50.53740
2.0739	50.45790
2.0731	50.51290
2.0723	50.51340
2.0715	50.35030
2.0706	50.08190
2.0698	50.18370
2.0690	50.61040
2.0681	50.85950
2.0673	51.04400
2.0665	50.75580
2.0657	50.01890
2.0649	50.15740
2.0640	50.30540
2.0632	49.98000
2.0624	49.98170
2.0616	50.12570
2.0607	50.40180
2.0599	50.24600
2.0591	49.99490
2.0583	50.13040
2.0575	50.33970
2.0567	50.18560
2.0558	49.99550
2.0550	49.71380
2.0542	49.64740
2.0534	50.03770
2.0526	50.18360
2.0518	50.01330
2.0510	49.86110
2.0502	49.95720
2.0493	50.03000
2.0485	50.07430
2.0477	49.91230
2.0469	49.84760
2.0461	49.88190
2.0453	49.94300
2.0445	50.17280
2.0437	50.00740
2.0429	49.67880
2.0421	49.60730
2.0413	49.66080
2.0405	49.67070
2.0397	49.81500
2.0389	49.70670
2.0381	49.54020
2.0373	49.56050
2.0365	49.52810
2.0357	49.47520
2.0349	49.42680
2.0341	49.50470
2.0333	49.62150
2.0325	49.63350
2.0317	49.56950
2.0309	49.45500
2.0301	49.41500
2.0293	49.37200
2.0285	49.21760
2.0277	49.06490
2.0269	49.09460
2.0261	49.20460
2.0253	49.11180
2.0245	48.98240
2.0237	49.07530
2.0230	49.16300
2.0222	48.97310
2.0214	48.87790
2.0206	48.99730
2.0198	48.99560
2.0190	48.88710
2.0182	48.64930
2.0174	48.45220
2.0167	48.51420
2.0159	48.62160
2.0151	48.48150
2.0143	48.57350
2.0135	48.58390
2.0128	48.38630
2.0120	48.50160
2.0112	48.50310
2.0104	48.19960
2.0096	47.83540
2.0089	47.72820
2.0081	48.14720
2.0073	48.25430
2.0065	47.91040
2.0057	47.86510
2.0050	47.92580
2.0042	47.84270
2.0034	47.66020
2.0026	47.63870
2.0019	47.64090
2.0011	47.67480
2.0003	47.74140

