Name: Rivadavite Na6MgB24O40 * 22H2O
Type: Mineral
Class: Borate
Subclass: None
Particle Size: Unsieved coarse powder
Sample No.: NMNH 170164
Owner: Smithsonian Institute, National Museum of Nat. History
Wavelength range: 0.40 - 14.05 um
Origin: Tinclayu, Salta, Argentina

Description: Rivadavite from Tinclayu, Salta, Argentina





Measurement: Directional Hemispherical Reflectance
First Column: X
Second Column: Y
X Units: Wavelength (micrometers)
Y Units: Reflectance (percent)
First X Value: 14.05105
Last X Value: 0.40000
Number of X Values: 2756
Additional Information: None

 14.051   4.5011
 14.013   4.1097
 13.975   4.0788
 13.938   3.9449
 13.900   3.9861
 13.863   3.7801
 13.826   3.8934
 13.790   3.9243
 13.753   3.9758
 13.717   3.9243
 13.680   3.9140
 13.644   3.9037
 13.609   4.0685
 13.573   4.0994
 13.538   4.2436
 13.502   4.2848
 13.467   4.4496
 13.432   4.5217
 13.398   4.6041
 13.363   4.6556
 13.329   4.7174
 13.295   4.7277
 13.261   4.9337
 13.227   5.0058
 13.193   5.1603
 13.160   5.2427
 13.126   5.3766
 13.093   5.4075
 13.060   5.6135
 13.027   5.6959
 12.995   5.8504
 12.962   5.9740
 12.930   6.1182
 12.898   6.2521
 12.866   6.5199
 12.834   6.6641
 12.802   6.8907
 12.771   7.0452
 12.739   7.3542
 12.708   7.6426
 12.677   8.0855
 12.646   8.4563
 12.616   9.0434
 12.585   9.5172
 12.554   9.7644
 12.524   9.6408
 12.494   9.1876
 12.464   8.4151
 12.434   7.9516
 12.404   7.7971
 12.375   8.1370
 12.345   8.7035
 12.316   9.5584
 12.287  10.4030
 12.258  10.9283
 12.229  10.7326
 12.200  10.3618
 12.171   9.8880
 12.143   9.0022
 12.115   7.2512
 12.086   5.4899
 12.058   4.3466
 12.030   3.9037
 12.002   3.6977
 11.975   3.6668
 11.947   3.7286
 11.920   3.8110
 11.892   3.8419
 11.865   4.0685
 11.838   4.1715
 11.811   4.3775
 11.784   4.5732
 11.757   4.8719
 11.731   5.0470
 11.704   5.2118
 11.678   5.2942
 11.652   5.4178
 11.626   5.4899
 11.600   5.7165
 11.574   5.8916
 11.548   5.9946
 11.522   6.0358
 11.497   6.1800
 11.471   5.9946
 11.446   5.6650
 11.421   5.2324
 11.396   4.8410
 11.371   4.2848
 11.346   3.9037
 11.321   3.5535
 11.297   3.3784
 11.272   3.3887
 11.248   3.4814
 11.223   3.4402
 11.199   3.5020
 11.175   3.6050
 11.151   3.7904
 11.127   3.9449
 11.103   4.1612
 11.079   4.2024
 11.056   4.2745
 11.032   4.2642
 11.009   4.3363
 10.985   4.3569
 10.962   4.3260
 10.939   4.0479
 10.916   3.8110
 10.893   3.6359
 10.870   3.6153
 10.848   3.6874
 10.825   3.9449
 10.802   4.0582
 10.780   4.2745
 10.758   4.4393
 10.735   4.6350
 10.713   4.7586
 10.691   4.9955
 10.669   5.1912
 10.647   5.3972
 10.625   5.5929
 10.604   5.9122
 10.582   6.2006
 10.560   6.4890
 10.539   6.8083
 10.518   7.3027
 10.496   7.8280
 10.475   8.5387
 10.454   9.4142
 10.433  10.4442
 10.412  11.1858
 10.391  11.2682
 10.370  10.0940
 10.350   8.3842
 10.329   7.1070
 10.309   6.5611
 10.288   6.0255
 10.268   5.4075
 10.247   4.8101
 10.227   4.4496
 10.207   4.2642
 10.187   4.2848
 10.167   4.2539
 10.147   4.3054
 10.127   4.4290
 10.108   4.6865
 10.088   4.9234
 10.068   5.1706
 10.049   5.3972
 10.029   5.6650
 10.010   5.7886
  9.991   5.9637
  9.972   6.1491
  9.952   6.3242
  9.933   6.4375
  9.914   6.5199
  9.895   6.4375
  9.877   6.4478
  9.858   6.4169
  9.839   6.4272
  9.821   6.4272
  9.802   6.5611
  9.783   6.4993
  9.765   6.5199
  9.747   6.5920
  9.728   6.6950
  9.710   6.7259
  9.692   6.8701
  9.674   6.9422
  9.656   7.0658
  9.638   7.1688
  9.620   7.2100
  9.602   7.2409
  9.585   7.4160
  9.567   7.4366
  9.549   7.4572
  9.532   7.4881
  9.514   7.6117
  9.497   7.6838
  9.479   7.9001
  9.462   8.1061
  9.445   8.3636
  9.428   8.5490
  9.411   8.7962
  9.394   8.8786
  9.377   8.9816
  9.360   9.0434
  9.343   9.1258
  9.326   9.1773
  9.309   9.5687
  9.293  10.0940
  9.276  10.6502
  9.259  11.1034
  9.243  11.7111
  9.226  12.2570
  9.210  12.7411
  9.194  13.1016
  9.178  13.3694
  9.161  13.4518
  9.145  13.5445
  9.129  13.3694
  9.113  13.0913
  9.097  12.7205
  9.081  12.3085
  9.065  11.7317
  9.049  11.2270
  9.034  10.6811
  9.018  10.2691
  9.002   9.8262
  8.987   9.4554
  8.971   9.0949
  8.956   8.8786
  8.940   8.6932
  8.925   8.4872
  8.909   8.1164
  8.894   7.9310
  8.879   7.7250
  8.864   7.5190
  8.849   7.2615
  8.834   7.0658
  8.819   6.8392
  8.804   6.7671
  8.789   6.7053
  8.774   6.8392
  8.759   6.9937
  8.744   7.2306
  8.730   7.3645
  8.715   7.4881
  8.700   7.5293
  8.686   7.6529
  8.671   7.6323
  8.657   7.5293
  8.642   7.3336
  8.628   7.1894
  8.614   6.8907
  8.599   6.5920
  8.585   6.1388
  8.571   5.6341
  8.557   5.0367
  8.543   4.5629
  8.529   4.1612
  8.515   3.9346
  8.501   3.7389
  8.487   3.7286
  8.473   3.7595
  8.459   3.8007
  8.445   3.7698
  8.431   3.8316
  8.418   3.8213
  8.404   3.8213
  8.391   3.7801
  8.377   3.8316
  8.363   3.9243
  8.350   4.0582
  8.337   4.0994
  8.323   4.2230
  8.310   4.3672
  8.297   4.5423
  8.283   4.5526
  8.270   4.5938
  8.257   4.5835
  8.244   4.6247
  8.231   4.5732
  8.218   4.5114
  8.205   4.4084
  8.192   4.2848
  8.179   4.1921
  8.166   4.2024
  8.153   4.1097
  8.140   4.0788
  8.128   4.0994
  8.115   4.1406
  8.102   4.0685
  8.090   4.0788
  8.077   4.0788
  8.064   4.0788
  8.052   3.9037
  8.039   3.6771
  8.027   3.5329
  8.015   3.4299
  8.002   3.2342
  7.990   3.0694
  7.978   2.8119
  7.965   2.5544
  7.953   2.3484
  7.941   2.2145
  7.929   2.0600
  7.917   1.9673
  7.905   1.8540
  7.893   1.8437
  7.881   1.8128
  7.869   1.8437
  7.857   1.8231
  7.845   1.8849
  7.833   1.9570
  7.821   2.0909
  7.809   2.1836
  7.798   2.2866
  7.786   2.3484
  7.774   2.4823
  7.763   2.6368
  7.751   2.8016
  7.739   2.8531
  7.728   3.0591
  7.716   3.2239
  7.705   3.3475
  7.694   3.4711
  7.682   3.5947
  7.671   3.5947
  7.659   3.6874
  7.648   3.6977
  7.637   3.6771
  7.626   3.6565
  7.614   3.7080
  7.603   3.6771
  7.592   3.7080
  7.581   3.7286
  7.570   3.8831
  7.559   4.0582
  7.548   4.2127
  7.537   4.3466
  7.526   4.5217
  7.515   4.6247
  7.504   4.7380
  7.493   4.9028
  7.483   5.1397
  7.472   5.4075
  7.461   5.7680
  7.450   6.1903
  7.440   6.6538
  7.429   6.9834
  7.418   7.1688
  7.408   7.2615
  7.397   7.4160
  7.387   7.5396
  7.376   7.7868
  7.366   8.1473
  7.355   8.7138
  7.345   9.4657
  7.334  10.3000
  7.324  11.0416
  7.314  11.7111
  7.303  12.1643
  7.293  12.3806
  7.283  12.3497
  7.273  12.0819
  7.263  11.4742
  7.252  10.6502
  7.242   9.7953
  7.232   8.9095
  7.222   7.9928
  7.212   7.2100
  7.202   6.6332
  7.192   6.1388
  7.182   5.6238
  7.172   5.2015
  7.162   4.7998
  7.152   4.4908
  7.143   4.1509
  7.133   3.8110
  7.123   3.5020
  7.113   3.3166
  7.103   3.2342
  7.094   3.2857
  7.084   3.3990
  7.074   3.5844
  7.065   3.7183
  7.055   3.9037
  7.046   4.1406
  7.036   4.2745
  7.026   4.2848
  7.017   4.2745
  7.007   4.2024
  6.998   4.2127
  6.989   4.2436
  6.979   4.3260
  6.970   4.4084
  6.960   4.5526
  6.951   4.7895
  6.942   5.0985
  6.932   5.4075
  6.923   5.7783
  6.914   6.1903
  6.905   6.6126
  6.896   6.9319
  6.886   7.2615
  6.877   7.5602
  6.868   7.7250
  6.859   7.7250
  6.850   7.3645
  6.841   6.7671
  6.832   6.1388
  6.823   5.4281
  6.814   4.6762
  6.805   3.9861
  6.796   3.4814
  6.787   3.0488
  6.778   2.6574
  6.770   2.3484
  6.761   2.1218
  6.752   1.9570
  6.743   1.8437
  6.734   1.7922
  6.726   1.8334
  6.717   1.8128
  6.708   1.7819
  6.700   1.7407
  6.691   1.6583
  6.682   1.5141
  6.674   1.4008
  6.665   1.2257
  6.657   1.0609
  6.648   0.8858
  6.640   0.7828
  6.631   0.7622
  6.623   0.7622
  6.614   0.7107
  6.606   0.6695
  6.597   0.5974
  6.589   0.5871
  6.581   0.6283
  6.572   0.6798
  6.564   0.6386
  6.556   0.5768
  6.547   0.5768
  6.539   0.6077
  6.531   0.5974
  6.523   0.5871
  6.514   0.5768
  6.506   0.5768
  6.498   0.6077
  6.490   0.6489
  6.482   0.6798
  6.474   0.7107
  6.466   0.7107
  6.458   0.7313
  6.450   0.7210
  6.442   0.7416
  6.434   0.7622
  6.426   0.7931
  6.418   0.8137
  6.410   0.8343
  6.402   0.7828
  6.394   0.7725
  6.386   0.7931
  6.378   0.8240
  6.370   0.8652
  6.363   0.9167
  6.355   0.9270
  6.347   0.9270
  6.339   0.8961
  6.332   0.8858
  6.324   0.8755
  6.316   0.9579
  6.308   0.9991
  6.301   0.9991
  6.293   1.0403
  6.286   1.0506
  6.278   1.0300
  6.270   1.0712
  6.263   1.0712
  6.255   1.0300
  6.248   0.9682
  6.240   1.0403
  6.233   1.0918
  6.225   1.1021
  6.218   1.1227
  6.210   1.1742
  6.203   1.1845
  6.195   1.1330
  6.188   1.1021
  6.181   1.1536
  6.173   1.1536
  6.166   1.0918
  6.159   1.1330
  6.151   1.2154
  6.144   1.1536
  6.137   1.1227
  6.130   1.1124
  6.122   1.1227
  6.115   1.1330
  6.108   1.1330
  6.101   1.1433
  6.094   1.2051
  6.086   1.2566
  6.079   1.2875
  6.072   1.3081
  6.065   1.2978
  6.058   1.2669
  6.051   1.2875
  6.044   1.3390
  6.037   1.3184
  6.030   1.2566
  6.023   1.2051
  6.016   1.1639
  6.009   1.1639
  6.002   1.1330
  5.995   1.1021
  5.988   1.1021
  5.981   1.1433
  5.974   1.1536
  5.967   1.1845
  5.960   1.2257
  5.954   1.2772
  5.947   1.3081
  5.940   1.3390
  5.933   1.3184
  5.926   1.2875
  5.920   1.2566
  5.913   1.2978
  5.906   1.3287
  5.899   1.3596
  5.893   1.3493
  5.886   1.3184
  5.879   1.2978
  5.873   1.3390
  5.866   1.2978
  5.859   1.3287
  5.853   1.3596
  5.846   1.3802
  5.840   1.3493
  5.833   1.3596
  5.827   1.3802
  5.820   1.3905
  5.813   1.4008
  5.807   1.4420
  5.800   1.4523
  5.794   1.4832
  5.788   1.4729
  5.781   1.5141
  5.775   1.5553
  5.768   1.5450
  5.762   1.5965
  5.755   1.6789
  5.749   1.6583
  5.743   1.6583
  5.736   1.6686
  5.730   1.6892
  5.724   1.6995
  5.717   1.6789
  5.711   1.6686
  5.705   1.7510
  5.698   1.7304
  5.692   1.7407
  5.686   1.7922
  5.680   1.8334
  5.674   1.8643
  5.667   1.8849
  5.661   1.8437
  5.655   1.8540
  5.649   1.8746
  5.643   1.8746
  5.637   1.8746
  5.630   1.8849
  5.624   1.8952
  5.618   1.9158
  5.612   1.9158
  5.606   1.9570
  5.600   1.9570
  5.594   1.9673
  5.588   1.9673
  5.582   1.9776
  5.576   2.0188
  5.570   2.0394
  5.564   2.0188
  5.558   2.0291
  5.552   2.0291
  5.546   2.0394
  5.540   2.0497
  5.534   2.0188
  5.528   2.0085
  5.523   2.0497
  5.517   2.0600
  5.511   2.0497
  5.505   2.0600
  5.499   2.1012
  5.493   2.1012
  5.487   2.0806
  5.482   2.0806
  5.476   2.1218
  5.470   2.1527
  5.464   2.1527
  5.459   2.1527
  5.453   2.1733
  5.447   2.2042
  5.441   2.2145
  5.436   2.2042
  5.430   2.2145
  5.424   2.2557
  5.419   2.2969
  5.413   2.2042
  5.407   2.2248
  5.402   2.2454
  5.396   2.2557
  5.390   2.2557
  5.385   2.2248
  5.379   2.2351
  5.374   2.2969
  5.368   2.2866
  5.363   2.3072
  5.357   2.3381
  5.352   2.3381
  5.346   2.3381
  5.341   2.3175
  5.335   2.2969
  5.330   2.3072
  5.324   2.3484
  5.319   2.3896
  5.313   2.3896
  5.308   2.3793
  5.302   2.3793
  5.297   2.4205
  5.291   2.3999
  5.286   2.4205
  5.281   2.4617
  5.275   2.4514
  5.270   2.4617
  5.265   2.4926
  5.259   2.5029
  5.254   2.4514
  5.249   2.4102
  5.243   2.4823
  5.238   2.5132
  5.233   2.5441
  5.227   2.5441
  5.222   2.5235
  5.217   2.5750
  5.212   2.6368
  5.206   2.5956
  5.201   2.5647
  5.196   2.5544
  5.191   2.5956
  5.186   2.6265
  5.180   2.6574
  5.175   2.6265
  5.170   2.6368
  5.165   2.6883
  5.160   2.7192
  5.155   2.6883
  5.150   2.7089
  5.145   2.7398
  5.139   2.7295
  5.134   2.7192
  5.129   2.7604
  5.124   2.7707
  5.119   2.7707
  5.114   2.7501
  5.109   2.7398
  5.104   2.6986
  5.099   2.6986
  5.094   2.7501
  5.089   2.7913
  5.084   2.8325
  5.079   2.8119
  5.074   2.7604
  5.069   2.7707
  5.064   2.7604
  5.059   2.7192
  5.054   2.7295
  5.049   2.7913
  5.044   2.8016
  5.040   2.8016
  5.035   2.8016
  5.030   2.8119
  5.025   2.7810
  5.020   2.8016
  5.015   2.8737
  5.010   2.8428
  5.005   2.8119
  5.001   2.8119
  4.996   2.8325
  4.991   2.8634
  4.986   2.8325
  4.981   2.8325
  4.977   2.8634
  4.972   2.8634
  4.967   2.8531
  4.962   2.8531
  4.958   2.8531
  4.953   2.8737
  4.948   2.9355
  4.943   2.9149
  4.939   2.8428
  4.934   2.8634
  4.929   2.9355
  4.925   2.9973
  4.920   2.9561
  4.915   2.9252
  4.911   2.9458
  4.906   2.9870
  4.901   2.9767
  4.897   2.9355
  4.892   2.9149
  4.888   2.9664
  4.883   2.9973
  4.878   2.9664
  4.874   2.9355
  4.869   2.9767
  4.865   3.0179
  4.860   2.9767
  4.856   2.9561
  4.851   2.9664
  4.846   2.9973
  4.842   3.0385
  4.837   3.0282
  4.833   3.0179
  4.828   3.0179
  4.824   3.0179
  4.819   3.0179
  4.815   3.0282
  4.810   3.0591
  4.806   3.1003
  4.802   3.0385
  4.797   3.0179
  4.793   3.0488
  4.788   3.0179
  4.784   3.0385
  4.779   3.0488
  4.775   3.0076
  4.771   2.9973
  4.766   3.0385
  4.762   3.0694
  4.758   3.0488
  4.753   3.0385
  4.749   3.0694
  4.744   3.0488
  4.740   3.0385
  4.736   3.0282
  4.731   3.0282
  4.727   2.9973
  4.723   3.0076
  4.719   2.9973
  4.714   2.9664
  4.710   3.0076
  4.706   3.0591
  4.701   3.0591
  4.697   3.0385
  4.693   2.9870
  4.689   2.9767
  4.684   2.9767
  4.680   2.9870
  4.676   3.0076
  4.672   3.0591
  4.668   3.1106
  4.663   3.1312
  4.659   3.1106
  4.655   3.0694
  4.651   3.0797
  4.647   3.0900
  4.643   3.1003
  4.638   3.0797
  4.634   3.0282
  4.630   3.1003
  4.626   3.1209
  4.622   3.0900
  4.618   3.0694
  4.614   3.1209
  4.610   3.1518
  4.605   3.1415
  4.601   3.1106
  4.597   3.1209
  4.593   3.1415
  4.589   3.1312
  4.585   3.1209
  4.581   3.1312
  4.577   3.1724
  4.573   3.1827
  4.569   3.1415
  4.565   3.1209
  4.561   3.1106
  4.557   3.1003
  4.553   3.1106
  4.549   3.1209
  4.545   3.1518
  4.541   3.1724
  4.537   3.1621
  4.533   3.1724
  4.529   3.2239
  4.525   3.2754
  4.521   3.2239
  4.517   3.2136
  4.513   3.2136
  4.509   3.2033
  4.505   3.1724
  4.502   3.2342
  4.498   3.2342
  4.494   3.1518
  4.490   3.1827
  4.486   3.2548
  4.482   3.2548
  4.478   3.2136
  4.474   3.1827
  4.470   3.1930
  4.467   3.2239
  4.463   3.2342
  4.459   3.2857
  4.455   3.2651
  4.451   3.2342
  4.447   3.2136
  4.444   3.2033
  4.440   3.2342
  4.436   3.2548
  4.432   3.2342
  4.428   3.1930
  4.425   3.1724
  4.421   3.1724
  4.417   3.1930
  4.413   3.2445
  4.410   3.2445
  4.406   3.2445
  4.402   3.2651
  4.398   3.2033
  4.395   3.1518
  4.391   3.0900
  4.387   3.0591
  4.384   3.1106
  4.380   3.1518
  4.376   3.1724
  4.372   3.1930
  4.369   3.2239
  4.365   3.2239
  4.361   3.1827
  4.358   3.1930
  4.354   3.1930
  4.350   3.2033
  4.347   3.2239
  4.343   3.1518
  4.340   3.1518
  4.336   3.2239
  4.332   3.2445
  4.329   3.2033
  4.325   3.1827
  4.321   3.2651
  4.318   3.2136
  4.314   3.1827
  4.311   3.2033
  4.307   3.2033
  4.304   3.2342
  4.300   3.2754
  4.296   3.2548
  4.293   3.1827
  4.289   3.1827
  4.286   3.2445
  4.282   3.2857
  4.279   3.3372
  4.275   3.3269
  4.272   3.2548
  4.268   3.1930
  4.265   3.1827
  4.261   3.2033
  4.258   3.1930
  4.254   3.2342
  4.251   3.2548
  4.247   3.1724
  4.244   3.1724
  4.240   3.1930
  4.237   3.2239
  4.233   3.1930
  4.230   3.1724
  4.226   3.2136
  4.223   3.2857
  4.219   3.2857
  4.216   3.2651
  4.213   3.2548
  4.209   3.2342
  4.206   3.2136
  4.202   3.2857
  4.199   3.2445
  4.196   3.1724
  4.192   3.1930
  4.189   3.2445
  4.185   3.2548
  4.182   3.2857
  4.179   3.2754
  4.175   3.2651
  4.172   3.2445
  4.169   3.2857
  4.165   3.3166
  4.162   3.3372
  4.159   3.2754
  4.155   3.3166
  4.152   3.3372
  4.149   3.2651
  4.145   3.2033
  4.142   3.2445
  4.139   3.3063
  4.135   3.3475
  4.132   3.3372
  4.129   3.3681
  4.126   3.3269
  4.122   3.3166
  4.119   3.2960
  4.116   3.3063
  4.112   3.3372
  4.109   3.3990
  4.106   3.3784
  4.103   3.3166
  4.099   3.2651
  4.096   3.3269
  4.093   3.3887
  4.090   3.4711
  4.086   3.4917
  4.083   3.4608
  4.080   3.4299
  4.077   3.4608
  4.074   3.4093
  4.070   3.3681
  4.067   3.4093
  4.064   3.4402
  4.061   3.5020
  4.058   3.5535
  4.055   3.4505
  4.051   3.4299
  4.048   3.4711
  4.045   3.5123
  4.042   3.4608
  4.039   3.4299
  4.036   3.4196
  4.032   3.4917
  4.029   3.5020
  4.026   3.4608
  4.023   3.4608
  4.020   3.5123
  4.017   3.4917
  4.014   3.4299
  4.011   3.4505
  4.008   3.5535
  4.004   3.4917
  4.001   3.4608
  3.998   3.5020
  3.995   3.5329
  3.992   3.4711
  3.989   3.4505
  3.986   3.4402
  3.983   3.4608
  3.980   3.5226
  3.977   3.4917
  3.974   3.4093
  3.971   3.3681
  3.968   3.3681
  3.965   3.3681
  3.962   3.3990
  3.959   3.4402
  3.956   3.4711
  3.953   3.4917
  3.950   3.4505
  3.947   3.4505
  3.944   3.4196
  3.941   3.4711
  3.938   3.4608
  3.935   3.4196
  3.932   3.3784
  3.929   3.4093
  3.926   3.4917
  3.923   3.5123
  3.920   3.4402
  3.917   3.4196
  3.914   3.3475
  3.911   3.3681
  3.908   3.4196
  3.905   3.4505
  3.902   3.4299
  3.899   3.4299
  3.896   3.4505
  3.893   3.4402
  3.890   3.3887
  3.887   3.3784
  3.884   3.4299
  3.882   3.4608
  3.879   3.5020
  3.876   3.5226
  3.873   3.4608
  3.870   3.4608
  3.867   3.4402
  3.864   3.4505
  3.861   3.4814
  3.858   3.4917
  3.856   3.4505
  3.853   3.4711
  3.850   3.4299
  3.847   3.3990
  3.844   3.4711
  3.841   3.4711
  3.838   3.3990
  3.836   3.4608
  3.833   3.5123
  3.830   3.5123
  3.827   3.4814
  3.824   3.5226
  3.822   3.5432
  3.819   3.5638
  3.816   3.5329
  3.813   3.4299
  3.810   3.4196
  3.807   3.4711
  3.805   3.5329
  3.802   3.5535
  3.799   3.5432
  3.796   3.5638
  3.794   3.5741
  3.791   3.5638
  3.788   3.5123
  3.785   3.5329
  3.782   3.5226
  3.780   3.5638
  3.777   3.6050
  3.774   3.6050
  3.771   3.5329
  3.769   3.5844
  3.766   3.6050
  3.763   3.5020
  3.761   3.4299
  3.758   3.5123
  3.755   3.4917
  3.752   3.4917
  3.750   3.5226
  3.747   3.6153
  3.744   3.6153
  3.742   3.5741
  3.739   3.5638
  3.736   3.6256
  3.733   3.5535
  3.731   3.5535
  3.728   3.6050
  3.725   3.5020
  3.723   3.4196
  3.720   3.5123
  3.717   3.5535
  3.715   3.5123
  3.712   3.4608
  3.709   3.4917
  3.707   3.4608
  3.704   3.4608
  3.702   3.4608
  3.699   3.5020
  3.696   3.5638
  3.694   3.5638
  3.691   3.5432
  3.688   3.5329
  3.686   3.4299
  3.683   3.3990
  3.680   3.5123
  3.678   3.5741
  3.675   3.5226
  3.673   3.4711
  3.670   3.4299
  3.667   3.4299
  3.665   3.5329
  3.662   3.6256
  3.660   3.5947
  3.657   3.4608
  3.655   3.3990
  3.652   3.5020
  3.649   3.4608
  3.647   3.4299
  3.644   3.4917
  3.642   3.5535
  3.639   3.4093
  3.637   3.3475
  3.634   3.3681
  3.632   3.3990
  3.629   3.3990
  3.626   3.4814
  3.624   3.4608
  3.621   3.3990
  3.619   3.3578
  3.616   3.4402
  3.614   3.5123
  3.611   3.4814
  3.609   3.4299
  3.606   3.4402
  3.604   3.4402
  3.601   3.4402
  3.599   3.4505
  3.596   3.4299
  3.594   3.4402
  3.591   3.4299
  3.589   3.4196
  3.586   3.4711
  3.584   3.4196
  3.581   3.4299
  3.579   3.3887
  3.576   3.3372
  3.574   3.3166
  3.571   3.3166
  3.569   3.3475
  3.567   3.4917
  3.564   3.4711
  3.562   3.3990
  3.559   3.3887
  3.557   3.3990
  3.554   3.3784
  3.552   3.3681
  3.549   3.3063
  3.547   3.4299
  3.545   3.4814
  3.542   3.4196
  3.540   3.2960
  3.537   3.2548
  3.535   3.2857
  3.533   3.3475
  3.530   3.3784
  3.528   3.3681
  3.525   3.3166
  3.523   3.3372
  3.521   3.2960
  3.518   3.3166
  3.516   3.2960
  3.513   3.3166
  3.511   3.3166
  3.509   3.3578
  3.506   3.3372
  3.504   3.3475
  3.502   3.3784
  3.499   3.3475
  3.497   3.2857
  3.494   3.2445
  3.492   3.1827
  3.490   3.2239
  3.487   3.3372
  3.485   3.4093
  3.483   3.3372
  3.480   3.3784
  3.478   3.3269
  3.476   3.3063
  3.473   3.3372
  3.471   3.3475
  3.469   3.2548
  3.466   3.2136
  3.464   3.2651
  3.462   3.3681
  3.460   3.3578
  3.457   3.3063
  3.455   3.2548
  3.453   3.2239
  3.450   3.2548
  3.448   3.2960
  3.446   3.2342
  3.443   3.2033
  3.441   3.2445
  3.439   3.2239
  3.437   3.1415
  3.434   3.2239
  3.432   3.2445
  3.430   3.2548
  3.428   3.2239
  3.425   3.2239
  3.423   3.1518
  3.421   3.1827
  3.418   3.2445
  3.416   3.2239
  3.414   3.2136
  3.412   3.2651
  3.409   3.2239
  3.407   3.1930
  3.405   3.1930
  3.403   3.2136
  3.401   3.1930
  3.398   3.2136
  3.396   3.1827
  3.394   3.1827
  3.392   3.1312
  3.389   3.0694
  3.387   3.1003
  3.385   3.1724
  3.383   3.1724
  3.381   3.1930
  3.378   3.1827
  3.376   3.2445
  3.374   3.2136
  3.372   3.1827
  3.370   3.1312
  3.367   3.0900
  3.365   3.0797
  3.363   3.1106
  3.361   3.0900
  3.359   3.1415
  3.357   3.1312
  3.354   3.1209
  3.352   3.1003
  3.350   3.1724
  3.348   3.1621
  3.346   3.0900
  3.344   3.0488
  3.341   3.1003
  3.339   3.0900
  3.337   3.1106
  3.335   3.1209
  3.333   3.1312
  3.331   3.0385
  3.329   3.0385
  3.326   3.0797
  3.324   3.0900
  3.322   3.1003
  3.320   3.0797
  3.318   2.9767
  3.316   2.9973
  3.314   3.0591
  3.312   3.0797
  3.309   3.0591
  3.307   3.0385
  3.305   3.0591
  3.303   3.0900
  3.301   3.0282
  3.299   2.9973
  3.297   3.0076
  3.295   3.1003
  3.293   3.1106
  3.291   3.0488
  3.288   3.0179
  3.286   3.0385
  3.284   3.0076
  3.282   3.0385
  3.280   3.1312
  3.278   3.2136
  3.276   3.1209
  3.274   3.0900
  3.272   3.0694
  3.270   3.0282
  3.268   2.9664
  3.266   3.0694
  3.264   3.1003
  3.262   3.1003
  3.259   3.1209
  3.257   3.1106
  3.255   2.9973
  3.253   3.0179
  3.251   3.0797
  3.249   3.1724
  3.247   3.1621
  3.245   3.0591
  3.243   2.9664
  3.241   3.0076
  3.239   3.0694
  3.237   3.1518
  3.235   3.1827
  3.233   3.0900
  3.231   3.0076
  3.229   2.9973
  3.227   3.0591
  3.225   3.0797
  3.223   3.0797
  3.221   3.1724
  3.219   3.1724
  3.217   3.2445
  3.215   3.1209
  3.213   2.9973
  3.211   2.9973
  3.209   3.0076
  3.207   3.0385
  3.205   3.2136
  3.203   3.1930
  3.201   3.0900
  3.199   3.0900
  3.197   3.0900
  3.195   2.9870
  3.193   3.0591
  3.191   3.1415
  3.189   3.1827
  3.187   3.1518
  3.185   3.1621
  3.183   3.1209
  3.182   3.1209
  3.180   3.1415
  3.178   3.1415
  3.176   3.1003
  3.174   3.0282
  3.172   3.0076
  3.170   3.1209
  3.168   3.1003
  3.166   3.1003
  3.164   3.2033
  3.162   3.2033
  3.160   3.2033
  3.158   3.3166
  3.156   3.2033
  3.154   3.1415
  3.152   3.1106
  3.151   3.1312
  3.149   3.1827
  3.147   3.1930
  3.145   3.1827
  3.143   3.1518
  3.141   3.0591
  3.139   3.0694
  3.137   3.1518
  3.135   3.1930
  3.133   3.1827
  3.132   3.1518
  3.130   3.1003
  3.128   3.1621
  3.126   3.1621
  3.124   3.0694
  3.122   3.0591
  3.120   3.1312
  3.118   3.1621
  3.117   3.2239
  3.115   3.2548
  3.113   3.3063
  3.111   3.3063
  3.109   3.2548
  3.107   3.1827
  3.105   3.2651
  3.103   3.2754
  3.102   3.2136
  3.100   3.1312
  3.098   3.1312
  3.096   3.1518
  3.094   3.2445
  3.092   3.2342
  3.091   3.2754
  3.089   3.2960
  3.087   3.2857
  3.085   3.2342
  3.083   3.2033
  3.081   3.1312
  3.079   3.1621
  3.078   3.2239
  3.076   3.3887
  3.074   3.4402
  3.072   3.3578
  3.070   3.2548
  3.069   3.2651
  3.067   3.2651
  3.065   3.2445
  3.063   3.1930
  3.061   3.2033
  3.060   3.2754
  3.058   3.3681
  3.056   3.3063
  3.054   3.1724
  3.052   3.0797
  3.051   3.1415
  3.049   3.2445
  3.047   3.3166
  3.045   3.3372
  3.043   3.3063
  3.042   3.2857
  3.040   3.3475
  3.038   3.3063
  3.036   3.2342
  3.034   3.2033
  3.033   3.2445
  3.031   3.1312
  3.029   3.1827
  3.027   3.2342
  3.026   3.1930
  3.024   3.1930
  3.022   3.2651
  3.020   3.2239
  3.019   3.2857
  3.017   3.2548
  3.015   3.3475
  3.013   3.4814
  3.012   3.4608
  3.010   3.3887
  3.008   3.3372
  3.006   3.2136
  3.005   3.1930
  3.003   3.1827
  3.001   3.1415
  2.999   3.1312
  2.998   3.1724
  2.996   3.0694
  2.994   3.0076
  2.992   2.9149
  2.991   2.9149
  2.989   2.9458
  2.987   3.0076
  2.986   2.9458
  2.984   2.8222
  2.982   2.7089
  2.980   2.6677
  2.979   2.6368
  2.977   2.7604
  2.975   2.7913
  2.974   2.7604
  2.972   2.7089
  2.970   2.7398
  2.968   2.6883
  2.967   2.7192
  2.965   2.6574
  2.963   2.7192
  2.962   2.7810
  2.960   2.7810
  2.958   2.6162
  2.957   2.5647
  2.955   2.5338
  2.953   2.5544
  2.952   2.5338
  2.950   2.6471
  2.948   2.6883
  2.947   2.7089
  2.945   2.6162
  2.943   2.5029
  2.942   2.5750
  2.940   2.7810
  2.938   2.5750
  2.937   2.3690
  2.935   2.4411
  2.933   2.5132
  2.932   2.4411
  2.930   2.3690
  2.928   2.3896
  2.927   2.4617
  2.925   2.3999
  2.923   2.3793
  2.922   2.3999
  2.920   2.4720
  2.918   2.4205
  2.917   2.5544
  2.915   2.6780
  2.913   2.5956
  2.912   2.3690
  2.910   2.3690
  2.909   2.3896
  2.907   2.3793
  2.905   2.3690
  2.904   2.5132
  2.902   2.5647
  2.900   2.4411
  2.899   2.2969
  2.897   2.3381
  2.896   2.4102
  2.894   2.4308
  2.892   2.3690
  2.891   2.3999
  2.889   2.3587
  2.887   2.3072
  2.886   2.2866
  2.884   2.2763
  2.883   2.2763
  2.881   2.3999
  2.879   2.2557
  2.878   2.2042
  2.876   2.0497
  2.875   2.0703
  2.873   2.1321
  2.871   2.3072
  2.870   2.3175
  2.868   2.1012
  2.867   2.0600
  2.865   2.2042
  2.864   2.1836
  2.862   2.1939
  2.860   2.2248
  2.859   2.3484
  2.857   2.2763
  2.856   2.2660
  2.854   2.2660
  2.853   2.2042
  2.851   2.2351
  2.849   2.2557
  2.848   2.1733
  2.846   2.2866
  2.845   2.2454
  2.843   2.2454
  2.842   2.2042
  2.840   2.3690
  2.838   2.5132
  2.837   2.6059
  2.835   2.5750
  2.834   2.4514
  2.832   2.4617
  2.831   2.6265
  2.829   2.6780
  2.828   2.8016
  2.826   2.7192
  2.825   2.5441
  2.823   2.5441
  2.821   2.6883
  2.820   2.5029
  2.818   2.2660
  2.817   2.1321
  2.815   2.0188
  2.814   1.7716
  2.812   1.6892
  2.811   1.6583
  2.809   1.7510
  2.808   1.6892
  2.806   1.6068
  2.805   1.4420
  2.803   1.5862
  2.802   1.5862
  2.800   1.5553
  2.799   1.4626
  2.797   1.3905
  2.796   1.3081
  2.794   1.4008
  2.793   1.4935
  2.791   1.4626
  2.790   1.4111
  2.788   1.5656
  2.787   1.7819
  2.785   1.9673
  2.784   1.8025
  2.782   1.8231
  2.781   1.7716
  2.779   1.6274
  2.778   1.6068
  2.776   1.8128
  2.775   1.7510
  2.773   1.7098
  2.772   1.6480
  2.770   1.6274
  2.769   1.4420
  2.767   1.5141
  2.766   1.6068
  2.764   1.6068
  2.763   1.7098
  2.761   1.7922
  2.760   1.6583
  2.758   1.6789
  2.757   1.8952
  2.756   1.9364
  2.754   1.9879
  2.753   2.0806
  2.751   1.9055
  2.750   1.8540
  2.748   1.9158
  2.747   1.9776
  2.745   2.0188
  2.744   2.1115
  2.742   2.0188
  2.741   2.1321
  2.740   2.3175
  2.738   2.2763
  2.737   2.1527
  2.735   2.1939
  2.734   2.2557
  2.732   2.3175
  2.731   2.3587
  2.729   2.5132
  2.728   2.5235
  2.727   2.5338
  2.725   2.6471
  2.724   2.8222
  2.722   2.8737
  2.721   2.8943
  2.719   2.7913
  2.718   2.8737
  2.717   2.9046
  2.715   2.9870
  2.714   3.0694
  2.712   3.1724
  2.711   3.2445
  2.709   3.3372
  2.708   3.3990
  2.707   3.3475
  2.705   3.2960
  2.704   3.5947
  2.702   3.7904
  2.701   3.8213
  2.700   3.9140
  2.698   4.0582
  2.697   3.8213
  2.695   3.9346
  2.694   3.9758
  2.693   3.9140
  2.691   3.8419
  2.690   4.0273
  2.688   4.0685
  2.687   4.2127
  2.686   4.4702
  2.684   4.6865
  2.683   4.7998
  2.681   4.8204
  2.680   4.6350
  2.679   4.6041
  2.677   4.6041
  2.676   4.7277
  2.675   4.6865
  2.673   4.6247
  2.672   4.7998
  2.670   5.0058
  2.669   4.9028
  2.668   5.1294
  2.666   5.4178
  2.665   5.6135
  2.664   5.6238
  2.662   5.4693
  2.661   5.2221
  2.659   5.1912
  2.658   5.2015
  2.657   5.2427
  2.655   5.4384
  2.654   5.6753
  2.653   5.7371
  2.651   5.6959
  2.650   5.6444
  2.649   5.6547
  2.647   5.7680
  2.646   6.0049
  2.645   5.9843
  2.643   5.8298
  2.642   5.7783
  2.640   5.7783
  2.639   5.8401
  2.638   5.9843
  2.636   6.0976
  2.635   6.0667
  2.634   5.9843
  2.632   6.1079
  2.631   6.1285
  2.630   6.1697
  2.628   6.1079
  2.627   6.3654
  2.626   6.4272
  2.624   6.3963
  2.623   6.2933
  2.622   6.2727
  2.620   6.2727
  2.619   6.3551
  2.618   6.5199
  2.617   6.6126
  2.615   6.4169
  2.614   6.4272
  2.613   6.6950
  2.611   6.8186
  2.610   6.7774
  2.609   6.8598
  2.607   6.6023
  2.606   6.5199
  2.605   6.4787
  2.603   6.5817
  2.602   6.6229
  2.601   6.5920
  2.599   6.7671
  2.598   6.8598
  2.597   7.0658
  2.596   7.2821
  2.594   7.1482
  2.593   7.1997
  2.592   7.2203
  2.590   7.1482
  2.589   6.9937
  2.588   7.0246
  2.586   6.9628
  2.585   6.8701
  2.584   6.9010
  2.583   6.8907
  2.581   7.0452
  2.580   7.2615
  2.579   7.1379
  2.577   7.2100
  2.576   7.0967
  2.575   7.1276
  2.574   7.1070
  2.572   7.1379
  2.571   7.1173
  2.570   6.9731
  2.569   6.9216
  2.567   7.0040
  2.566   6.8495
  2.565   6.8392
  2.563   6.9525
  2.562   7.0555
  2.561   7.2203
  2.560   7.1482
  2.558   7.0246
  2.557   7.0246
  2.556   7.1070
  2.555   7.2203
  2.553   7.2821
  2.552   7.3336
  2.551   7.1070
  2.550   6.9834
  2.548   6.8083
  2.547   6.8392
  2.546   6.7877
  2.545   6.7980
  2.543   6.7156
  2.542   6.7053
  2.541   6.8495
  2.540   6.9937
  2.538   6.9216
  2.537   6.9628
  2.536   6.8186
  2.535   6.7568
  2.533   6.6847
  2.532   6.9422
  2.531   6.9628
  2.530   6.9319
  2.528   6.7877
  2.527   6.7362
  2.526   6.6641
  2.525   6.6950
  2.524   6.8392
  2.522   6.9834
  2.521   6.9731
  2.520   6.8804
  2.519   6.8083
  2.517   6.9731
  2.516   7.0761
  2.515   6.9319
  2.514   6.7877
  2.513   7.0349
  2.511   7.2306
  2.510   7.1997
  2.509   7.0143
  2.508   7.1276
  2.506   7.1482
  2.505   7.1482
  2.504   6.9319
  2.503   6.9113
  2.502   7.0040
  2.500   7.1173
  2.500   7.1173
  2.498   6.7855
  2.496   7.0177
  2.494   7.0519
  2.492   7.1343
  2.490   6.9072
  2.488   6.9132
  2.486   6.9111
  2.484   6.7825
  2.482   6.6436
  2.480   6.8645
  2.478   6.8743
  2.476   6.5987
  2.474   6.4245
  2.472   6.6972
  2.470   6.5455
  2.468   6.6165
  2.466   6.7996
  2.464   6.5258
  2.462   6.7068
  2.460   6.4287
  2.458   6.6595
  2.456   6.3682
  2.454   6.2820
  2.452   6.4396
  2.450   6.4815
  2.448   6.4771
  2.446   6.3629
  2.444   6.2946
  2.442   6.3219
  2.440   6.4958
  2.438   6.5271
  2.436   6.6464
  2.434   6.5502
  2.432   6.5828
  2.430   6.3697
  2.428   6.6054
  2.426   6.5828
  2.424   6.8542
  2.422   6.7509
  2.420   6.8419
  2.418   6.6085
  2.416   6.9958
  2.414   7.1703
  2.412   7.0352
  2.410   7.1458
  2.408   7.2567
  2.406   7.2195
  2.404   7.4123
  2.402   7.5223
  2.400   7.5696
  2.398   7.4478
  2.396   7.6429
  2.394   7.6150
  2.392   7.7377
  2.390   7.8966
  2.388   8.1428
  2.386   8.2508
  2.384   8.0818
  2.382   8.4502
  2.380   8.5415
  2.378   8.5673
  2.376   8.5854
  2.374   8.7803
  2.372   8.6852
  2.370   8.8759
  2.368   8.8150
  2.366   9.1202
  2.364   9.0870
  2.362   9.0978
  2.360   9.2715
  2.358   9.1574
  2.356   9.2783
  2.354   9.4112
  2.352   9.3656
  2.350   9.6275
  2.348   9.5951
  2.346   9.6503
  2.344   9.7500
  2.342   9.8189
  2.340   9.8868
  2.338   9.9085
  2.336  10.1328
  2.334  10.1434
  2.332  10.1305
  2.330  10.2755
  2.328  10.3476
  2.326  10.3443
  2.324  10.4104
  2.322  10.4693
  2.320  10.4141
  2.318  10.4856
  2.316  10.3703
  2.314  10.3915
  2.312  10.4003
  2.310  10.4175
  2.308  10.4126
  2.306  10.4407
  2.304  10.4411
  2.302  10.3210
  2.300  10.2823
  2.298  10.3446
  2.296  10.2119
  2.294  10.1930
  2.292  10.2736
  2.290  10.1207
  2.288  10.1611
  2.286  10.1181
  2.284  10.1038
  2.282  10.1129
  2.280   9.9762
  2.278   9.8592
  2.276   9.8329
  2.274   9.8146
  2.272   9.7518
  2.270   9.7649
  2.268   9.8241
  2.266   9.6715
  2.264   9.7780
  2.262   9.6138
  2.260   9.5597
  2.258   9.7097
  2.256   9.6749
  2.254   9.5491
  2.252   9.5436
  2.250   9.4940
  2.248   9.4427
  2.246   9.4400
  2.244   9.3665
  2.242   9.2504
  2.240   9.2727
  2.238   9.2137
  2.236   9.1421
  2.234   9.1084
  2.232   9.1667
  2.230   9.1065
  2.228   8.9769
  2.226   8.9170
  2.224   8.8281
  2.222   8.6843
  2.220   8.6643
  2.218   8.6161
  2.216   8.5073
  2.214   8.4073
  2.212   8.3295
  2.210   8.2654
  2.208   8.2447
  2.206   8.1813
  2.204   8.0916
  2.202   8.0516
  2.200   8.0508
  2.198   7.9843
  2.196   7.8895
  2.194   7.8655
  2.192   7.8156
  2.190   7.8479
  2.188   7.7902
  2.186   7.7609
  2.184   7.8310
  2.182   7.8748
  2.180   7.7690
  2.178   7.6433
  2.176   7.6179
  2.174   7.6719
  2.172   7.6120
  2.170   7.5050
  2.168   7.4365
  2.166   7.4084
  2.164   7.4026
  2.162   7.4576
  2.160   7.5264
  2.158   7.5808
  2.156   7.8191
  2.154   7.9332
  2.152   8.0144
  2.150   8.1838
  2.148   8.3119
  2.146   8.4080
  2.144   8.5765
  2.142   8.6478
  2.140   8.8173
  2.138   8.9258
  2.136   9.0386
  2.134   9.1028
  2.132   9.0734
  2.130   9.1393
  2.128   9.1924
  2.126   9.2272
  2.124   9.2305
  2.122   9.2437
  2.120   9.3423
  2.118   9.2979
  2.116   9.2340
  2.114   9.2247
  2.112   9.3276
  2.110   9.3379
  2.108   9.2409
  2.106   9.3675
  2.104   9.3345
  2.102   9.3053
  2.100   9.4575
  2.098   9.4864
  2.096   9.5722
  2.094   9.4791
  2.092   9.5172
  2.090   9.5493
  2.088   9.6954
  2.086   9.7004
  2.084   9.8378
  2.082   9.9428
  2.080   9.9593
  2.078  10.1624
  2.076  10.2308
  2.074  10.2704
  2.072  10.4055
  2.070  10.4732
  2.068  10.5035
  2.066  10.5351
  2.064  10.6355
  2.062  10.6831
  2.060  10.6472
  2.058  10.6019
  2.056  10.6426
  2.054  10.6302
  2.052  10.5818
  2.050  10.5253
  2.048  10.5122
  2.046  10.6390
  2.044  10.5928
  2.042  10.6880
  2.040  10.6135
  2.038  10.6473
  2.036  10.6165
  2.034  10.5721
  2.032  10.6861
  2.030  10.7334
  2.028  10.6155
  2.026  10.6775
  2.024  10.6183
  2.022  10.6706
  2.020  10.5698
  2.018  10.6169
  2.016  10.6578
  2.014  10.6048
  2.012  10.4783
  2.010  10.6157
  2.008  10.6137
  2.006  10.5974
  2.004  10.6351
  2.002  10.4881
  2.000  10.3510
  1.998  10.4053
  1.996  10.3540
  1.994  10.2838
  1.992  10.2566
  1.990  10.2710
  1.988  10.1875
  1.986  10.0536
  1.984   9.8556
  1.982   9.8964
  1.980   9.7209
  1.978   9.5558
  1.976   9.3457
  1.974   9.3153
  1.972   9.1146
  1.970   9.0545
  1.968   8.8857
  1.966   8.8167
  1.964   8.6297
  1.962   8.4928
  1.960   8.5086
  1.958   8.4550
  1.956   8.3730
  1.954   8.3991
  1.952   8.2270
  1.950   8.0753
  1.948   8.0571
  1.946   8.0691
  1.944   7.9588
  1.942   7.7653
  1.940   7.6028
  1.938   7.6691
  1.936   7.4708
  1.934   7.3189
  1.932   7.3215
  1.930   7.2702
  1.928   7.3737
  1.926   7.5154
  1.924   7.6106
  1.922   7.8112
  1.920   8.1256
  1.918   8.3885
  1.916   8.5901
  1.914   8.7900
  1.912   9.1472
  1.910   9.5886
  1.908  10.0537
  1.906  10.3961
  1.904  10.7879
  1.902  11.3317
  1.900  11.7467
  1.898  12.1412
  1.896  12.4316
  1.894  12.9003
  1.892  13.1498
  1.890  13.6422
  1.888  14.0288
  1.886  14.2796
  1.884  14.5673
  1.882  14.9491
  1.880  14.9868
  1.878  15.3010
  1.876  15.5941
  1.874  15.8646
  1.872  15.9547
  1.870  16.0920
  1.868  16.2900
  1.866  16.3955
  1.864  16.3665
  1.862  16.3736
  1.860  16.4896
  1.858  16.6241
  1.856  16.5321
  1.854  16.7049
  1.852  16.7221
  1.850  16.7284
  1.848  16.7927
  1.846  16.5419
  1.844  16.8022
  1.842  16.7684
  1.840  16.6991
  1.838  16.7511
  1.836  16.6437
  1.834  16.8416
  1.832  16.5465
  1.830  16.6817
  1.828  16.4403
  1.826  16.7574
  1.824  16.5088
  1.822  16.6376
  1.820  16.6580
  1.818  16.4219
  1.816  16.2742
  1.814  16.4186
  1.812  16.3292
  1.810  16.3055
  1.808  16.2749
  1.806  16.2287
  1.804  16.0448
  1.802  16.0569
  1.800  16.0875
  1.798  15.9891
  1.796  16.0165
  1.794  15.8333
  1.792  15.9053
  1.790  16.0214
  1.788  16.0355
  1.786  15.9243
  1.784  15.9480
  1.782  16.0493
  1.780  16.1784
  1.778  16.0813
  1.776  15.9828
  1.774  16.1435
  1.772  15.9092
  1.770  15.9773
  1.768  16.0100
  1.766  16.0611
  1.764  16.2788
  1.762  16.2025
  1.760  16.2204
  1.758  16.3109
  1.756  16.3562
  1.754  16.3928
  1.752  16.6207
  1.750  16.7122
  1.748  16.5853
  1.746  16.7669
  1.744  16.7038
  1.742  16.8711
  1.740  16.9109
  1.738  16.8857
  1.736  16.9267
  1.734  17.0181
  1.732  17.0886
  1.730  17.1794
  1.728  17.0729
  1.726  17.0322
  1.724  17.2058
  1.722  17.2586
  1.720  17.3099
  1.718  17.2748
  1.716  17.4622
  1.714  17.3041
  1.712  17.4147
  1.710  17.4885
  1.708  17.4644
  1.706  17.4813
  1.704  17.5278
  1.702  17.6240
  1.700  17.7070
  1.698  17.6559
  1.696  17.6274
  1.694  17.6267
  1.692  17.7082
  1.690  17.7649
  1.688  17.7841
  1.686  17.8788
  1.684  17.8774
  1.682  17.9198
  1.680  17.7779
  1.678  17.7690
  1.676  17.8386
  1.674  17.8754
  1.672  17.9228
  1.670  17.9376
  1.668  18.0727
  1.666  18.0260
  1.664  17.7861
  1.662  17.9194
  1.660  17.9606
  1.658  18.1190
  1.656  18.0260
  1.654  18.0041
  1.652  18.0847
  1.650  17.9609
  1.648  17.9398
  1.646  18.0220
  1.644  18.1378
  1.642  18.1342
  1.640  17.9966
  1.638  18.0435
  1.636  18.0459
  1.634  17.9570
  1.632  17.9596
  1.630  18.0652
  1.628  17.9264
  1.626  17.8472
  1.624  17.8305
  1.622  17.7739
  1.620  17.7380
  1.618  17.7558
  1.616  17.7122
  1.614  17.6697
  1.612  17.5437
  1.610  17.6153
  1.608  17.5955
  1.606  17.6347
  1.604  17.6425
  1.602  17.4596
  1.600  17.4313
  1.598  17.4816
  1.596  17.5179
  1.594  17.3115
  1.592  17.2738
  1.590  17.3541
  1.588  17.3225
  1.586  17.2701
  1.584  17.1886
  1.582  17.2385
  1.580  17.2912
  1.578  17.3181
  1.576  17.2869
  1.574  17.2736
  1.572  17.3691
  1.570  17.3585
  1.568  17.3192
  1.566  17.3534
  1.564  17.4035
  1.562  17.3790
  1.560  17.3188
  1.558  17.3713
  1.556  17.3952
  1.554  17.3920
  1.552  17.3844
  1.550  17.3391
  1.548  17.2829
  1.546  17.3380
  1.544  17.2223
  1.542  17.1036
  1.540  17.2186
  1.538  17.2403
  1.536  17.2509
  1.534  17.1956
  1.532  17.2053
  1.530  17.1769
  1.528  17.1690
  1.526  17.0294
  1.524  16.9145
  1.522  16.8005
  1.520  16.6523
  1.518  16.6469
  1.516  16.5585
  1.514  16.4856
  1.512  16.4566
  1.510  16.4821
  1.508  16.3556
  1.506  16.3542
  1.504  16.2007
  1.502  16.0731
  1.500  16.0774
  1.498  15.8908
  1.496  15.8648
  1.494  15.8204
  1.492  15.6590
  1.490  15.5916
  1.488  15.4692
  1.486  15.2939
  1.484  15.2820
  1.482  15.0720
  1.480  14.9060
  1.478  14.8693
  1.476  14.9141
  1.474  14.8719
  1.472  14.8015
  1.470  14.7931
  1.468  14.8266
  1.466  14.6073
  1.464  14.6802
  1.462  14.3386
  1.460  14.0179
  1.458  13.7212
  1.456  13.2899
  1.454  12.9185
  1.452  12.4773
  1.450  12.3043
  1.448  12.1561
  1.446  12.3155
  1.444  12.3920
  1.442  12.6221
  1.440  12.8221
  1.438  12.9019
  1.436  13.1458
  1.434  13.3380
  1.432  13.3408
  1.430  13.8007
  1.428  14.2919
  1.426  14.6518
  1.424  15.1658
  1.422  15.8574
  1.420  16.1831
  1.418  16.8224
  1.416  17.3094
  1.414  17.6906
  1.412  18.1885
  1.410  18.4924
  1.408  19.0429
  1.406  19.9368
  1.404  21.0943
  1.402  22.4432
  1.400  23.4157
  1.398  24.4689
  1.396  25.5976
  1.394  26.7030
  1.392  27.6632
  1.390  28.1532
  1.388  29.1774
  1.386  29.8635
  1.384  30.2717
  1.382  30.8733
  1.380  31.4091
  1.378  31.7013
  1.376  32.1575
  1.374  32.1143
  1.372  32.3956
  1.370  32.4081
  1.368  32.6614
  1.366  32.6413
  1.364  32.5186
  1.362  32.6009
  1.360  32.6443
  1.358  32.5391
  1.356  32.5198
  1.354  32.7221
  1.352  32.6625
  1.350  32.6212
  1.348  32.5134
  1.346  32.6255
  1.344  32.7312
  1.342  32.7226
  1.340  32.8487
  1.338  33.0162
  1.336  33.4898
  1.334  34.0492
  1.332  34.5779
  1.330  35.2588
  1.328  35.6883
  1.326  36.2394
  1.324  36.7741
  1.322  37.2754
  1.320  37.9139
  1.318  38.3237
  1.316  38.6997
  1.314  39.1138
  1.312  39.3671
  1.310  39.8421
  1.308  40.1393
  1.306  40.2790
  1.304  40.5880
  1.302  40.6880
  1.300  41.0926
  1.298  41.3930
  1.296  41.6904
  1.294  41.6316
  1.292  41.9872
  1.290  41.8650
  1.288  42.1947
  1.286  42.0872
  1.284  42.3010
  1.282  42.2877
  1.280  42.4757
  1.278  42.3212
  1.276  42.4505
  1.274  42.4948
  1.272  42.1948
  1.270  42.1989
  1.268  42.0615
  1.266  42.1561
  1.264  41.9578
  1.262  42.0062
  1.260  41.7256
  1.258  41.8271
  1.256  42.0277
  1.254  41.9907
  1.252  42.2609
  1.250  42.4818
  1.248  42.8311
  1.246  42.8773
  1.244  43.3253
  1.242  43.2593
  1.240  43.6117
  1.238  43.6472
  1.236  43.7467
  1.234  44.1215
  1.232  44.1939
  1.230  44.3645
  1.228  44.3401
  1.226  44.3965
  1.224  44.4475
  1.222  44.5754
  1.220  44.7573
  1.218  44.5654
  1.216  44.7161
  1.214  44.7491
  1.212  44.9517
  1.210  44.7805
  1.208  44.7583
  1.206  44.7324
  1.204  44.5776
  1.202  44.4243
  1.200  44.2275
  1.198  44.1156
  1.196  44.3663
  1.194  44.2255
  1.192  44.3745
  1.190  44.2912
  1.188  44.2692
  1.186  44.3449
  1.184  44.1486
  1.182  43.7574
  1.180  43.5879
  1.178  42.9519
  1.176  42.8874
  1.174  43.3343
  1.172  43.7055
  1.170  44.0444
  1.168  44.3581
  1.166  44.7454
  1.164  45.1347
  1.162  45.6316
  1.160  46.4022
  1.158  47.2866
  1.156  48.0825
  1.154  48.8982
  1.152  49.5623
  1.150  50.3296
  1.148  50.8794
  1.146  51.2749
  1.144  51.8827
  1.142  52.3026
  1.140  52.6531
  1.138  52.9508
  1.136  53.0635
  1.134  53.1846
  1.132  53.2804
  1.130  53.3570
  1.128  53.4191
  1.126  53.7272
  1.124  53.5422
  1.122  53.6005
  1.120  53.7168
  1.118  53.6647
  1.116  53.7698
  1.114  53.9916
  1.112  53.9140
  1.110  53.9706
  1.108  53.9616
  1.106  54.0718
  1.104  54.1620
  1.102  54.2037
  1.100  54.4826
  1.098  54.4978
  1.096  54.6313
  1.094  54.5940
  1.092  54.8631
  1.090  54.7462
  1.088  54.7466
  1.086  54.9787
  1.084  55.0820
  1.082  55.1048
  1.080  54.9793
  1.078  55.0670
  1.076  54.9790
  1.074  54.9945
  1.072  55.0946
  1.070  55.0774
  1.068  54.9990
  1.066  55.0705
  1.064  55.1034
  1.062  54.7919
  1.060  54.8358
  1.058  54.7693
  1.056  54.7925
  1.054  54.6713
  1.052  54.6298
  1.050  54.4849
  1.048  54.3017
  1.046  54.0398
  1.044  54.0781
  1.042  53.8582
  1.040  53.8257
  1.038  53.6425
  1.036  53.3975
  1.034  53.2598
  1.032  53.0538
  1.030  52.8093
  1.028  52.5401
  1.026  52.4055
  1.024  52.1442
  1.022  51.9057
  1.020  51.6541
  1.018  51.4000
  1.016  51.2036
  1.014  50.8547
  1.012  50.4780
  1.010  50.1226
  1.008  49.7680
  1.006  49.4320
  1.004  48.9355
  1.002  48.5901
  1.000  48.3239
  0.998  47.7885
  0.996  47.2330
  0.994  46.7083
  0.992  46.2541
  0.990  45.8903
  0.988  45.5633
  0.986  45.5555
  0.984  45.7283
  0.982  46.1291
  0.980  46.6459
  0.978  47.1705
  0.976  47.8653
  0.974  48.6335
  0.972  49.2827
  0.970  49.9919
  0.968  50.5969
  0.966  51.2376
  0.964  51.8127
  0.962  52.3959
  0.960  53.0318
  0.958  53.5024
  0.956  53.8551
  0.954  54.1578
  0.952  54.4884
  0.950  54.7820
  0.948  54.9135
  0.946  55.0806
  0.944  55.3649
  0.942  55.5957
  0.940  55.8095
  0.938  56.0049
  0.936  56.2943
  0.934  56.5817
  0.932  56.8517
  0.930  56.9719
  0.928  57.2425
  0.926  57.5181
  0.924  57.4917
  0.922  57.5492
  0.920  57.7974
  0.918  57.9047
  0.916  58.0100
  0.914  58.1962
  0.912  58.2243
  0.910  58.3877
  0.908  58.5176
  0.906  58.4267
  0.904  58.4362
  0.902  58.4293
  0.900  58.4902
  0.898  58.7538
  0.896  58.7591
  0.894  58.7699
  0.892  58.8471
  0.890  59.2609
  0.888  59.2238
  0.886  59.1389
  0.884  59.4702
  0.882  59.6175
  0.880  59.7514
  0.878  59.6685
  0.876  59.5957
  0.874  59.7485
  0.872  59.9899
  0.870  59.8524
  0.868  60.0732
  0.866  60.2276
  0.864  59.6051
  0.862  59.5577
  0.860  60.0029
  0.858  60.5041
  0.856  60.7526
  0.854  60.8210
  0.852  60.8057
  0.850  60.8814
  0.848  60.9870
  0.846  61.0771
  0.844  61.1305
  0.842  61.2425
  0.840  61.3727
  0.838  61.4590
  0.836  61.6110
  0.834  61.6942
  0.832  61.7759
  0.830  61.8629
  0.828  61.9070
  0.826  61.9585
  0.824  62.0402
  0.822  62.0585
  0.820  62.1280
  0.818  62.1545
  0.816  62.2175
  0.814  62.2918
  0.812  62.3321
  0.810  62.3745
  0.808  62.3884
  0.806  62.4359
  0.804  62.4399
  0.802  62.5067
  0.800  62.5099
  0.798  62.5762
  0.796  62.5666
  0.794  62.5429
  0.792  62.5529
  0.790  62.5555
  0.788  62.5226
  0.786  62.5293
  0.784  62.5262
  0.782  62.5111
  0.780  62.4774
  0.778  62.4426
  0.776  62.4303
  0.774  62.4072
  0.772  62.3307
  0.770  62.3198
  0.768  62.2436
  0.766  62.1955
  0.764  62.1283
  0.762  62.0747
  0.760  62.0109
  0.758  61.9541
  0.756  61.9335
  0.754  62.0478
  0.752  62.1934
  0.750  62.4157
  0.748  62.6259
  0.746  62.7972
  0.744  62.9817
  0.742  63.1421
  0.740  63.2750
  0.738  63.4126
  0.736  63.5055
  0.734  63.6322
  0.732  63.6421
  0.730  63.7453
  0.728  63.8173
  0.726  63.8903
  0.724  63.9231
  0.722  64.0321
  0.720  64.0694
  0.718  64.1335
  0.716  64.1808
  0.714  64.2226
  0.712  64.2423
  0.710  64.2691
  0.708  64.3125
  0.706  64.3972
  0.704  64.3924
  0.702  64.3949
  0.700  64.4454
  0.698  64.4752
  0.696  64.4864
  0.694  64.4652
  0.692  64.4953
  0.690  64.5454
  0.688  64.5607
  0.686  64.5899
  0.684  64.6091
  0.682  64.6248
  0.680  64.6572
  0.678  64.6849
  0.676  64.6608
  0.674  64.7191
  0.672  64.7064
  0.670  64.7040
  0.668  64.7297
  0.666  64.7303
  0.664  64.7757
  0.662  64.7914
  0.660  64.8074
  0.658  64.8235
  0.656  64.8374
  0.654  64.8613
  0.652  64.8355
  0.650  64.8321
  0.648  64.8413
  0.646  64.8556
  0.644  64.8608
  0.642  64.8532
  0.640  64.8520
  0.638  64.8595
  0.636  64.8808
  0.634  64.8727
  0.632  64.8879
  0.630  64.8680
  0.628  64.8464
  0.626  64.8803
  0.624  64.8345
  0.622  64.8510
  0.620  64.8613
  0.618  64.8482
  0.616  64.8889
  0.614  64.8879
  0.612  64.9360
  0.610  64.9321
  0.608  64.9834
  0.606  64.9791
  0.604  65.0181
  0.602  64.9871
  0.600  65.0325
  0.598  65.0137
  0.596  64.9981
  0.594  64.9914
  0.592  64.9666
  0.590  64.9764
  0.588  64.9645
  0.586  64.9771
  0.584  64.9456
  0.582  64.9244
  0.580  64.9261
  0.578  64.8967
  0.576  64.8801
  0.574  64.8740
  0.572  64.8183
  0.570  64.7913
  0.568  64.7664
  0.566  64.7488
  0.564  64.7036
  0.562  64.6834
  0.560  64.6739
  0.558  64.6459
  0.556  64.6247
  0.554  64.6151
  0.552  64.5888
  0.550  64.5435
  0.548  64.5191
  0.546  64.5041
  0.544  64.4908
  0.542  64.4680
  0.540  64.4531
  0.538  64.4156
  0.536  64.4180
  0.534  64.3852
  0.532  64.3934
  0.530  64.3839
  0.528  64.3714
  0.526  64.3586
  0.524  64.3342
  0.522  64.3267
  0.520  64.3001
  0.518  64.2906
  0.516  64.2855
  0.514  64.2750
  0.512  64.2490
  0.510  64.2292
  0.508  64.2299
  0.506  64.1762
  0.504  64.1593
  0.502  64.1454
  0.500  64.1201
  0.498  64.1179
  0.496  64.1153
  0.494  64.0911
  0.492  64.0821
  0.490  64.0571
  0.488  64.0646
  0.486  64.0746
  0.484  64.0455
  0.482  64.0374
  0.480  64.0307
  0.478  64.0063
  0.476  63.9942
  0.474  63.9561
  0.472  63.9456
  0.470  63.9161
  0.468  63.8979
  0.466  63.8739
  0.464  63.8630
  0.462  63.8324
  0.460  63.8229
  0.458  63.7779
  0.456  63.7668
  0.454  63.7787
  0.452  63.7616
  0.450  63.7372
  0.448  63.6880
  0.446  63.6575
  0.444  63.6793
  0.442  63.6799
  0.440  63.6888
  0.438  63.6817
  0.436  63.6735
  0.434  63.6841
  0.432  63.6615
  0.430  63.6388
  0.428  63.6540
  0.426  63.6280
  0.424  63.6174
  0.422  63.5986
  0.420  63.5845
  0.418  63.5912
  0.416  63.5760
  0.414  63.5380
  0.412  63.5308
  0.410  63.5185
  0.408  63.5214
  0.406  63.5071
  0.404  63.4962
  0.402  63.4766
  0.400  63.4846
