Name: Epsomite MgSO4 * 7H2O
Type: Mineral
Class: Sulfate
Subclass: None
Particle Size: Unsieved coarse powder
Sample No.: None
Owner: USGS
Wavelength range: 0.40 - 14.05 um
Origin: "Epsom Salts"  - commercial product

Description: Epsomite - commercial product





Measurement: Directional Hemispherical Reflectance
First Column: X
Second Column: Y
X Units: Wavelength (micrometers)
Y Units: Reflectance (percent)
First X Value: 14.05105
Last X Value: 0.40000
Number of X Values: 2756
Additional Information: None

 14.051   1.0506
 14.013   1.0506
 13.975   1.1124
 13.938   1.0609
 13.900   1.2154
 13.863   1.1948
 13.826   1.1639
 13.790   1.0609
 13.753   1.1433
 13.717   1.0609
 13.680   1.0300
 13.644   0.9785
 13.609   1.1227
 13.573   1.1845
 13.538   1.1948
 13.502   1.1433
 13.467   1.1124
 13.432   1.0197
 13.398   1.0609
 13.363   1.0712
 13.329   1.1742
 13.295   1.1021
 13.261   1.0918
 13.227   1.0403
 13.193   1.0506
 13.160   0.9373
 13.126   0.9888
 13.093   1.0403
 13.060   1.0609
 13.027   1.0403
 12.995   0.9991
 12.962   0.8755
 12.930   0.9373
 12.898   0.8961
 12.866   0.8446
 12.834   0.8034
 12.802   0.8446
 12.771   0.8652
 12.739   0.8755
 12.708   0.7004
 12.677   0.7004
 12.646   0.6901
 12.616   0.7519
 12.585   0.7210
 12.554   0.6489
 12.524   0.5974
 12.494   0.6180
 12.464   0.6283
 12.434   0.7004
 12.404   0.6077
 12.375   0.6489
 12.345   0.7210
 12.316   0.7210
 12.287   0.6283
 12.258   0.6283
 12.229   0.5768
 12.200   0.7416
 12.171   0.8137
 12.143   0.8343
 12.115   0.8343
 12.086   0.8549
 12.058   0.7313
 12.030   0.6695
 12.002   0.5768
 11.975   0.6489
 11.947   0.6901
 11.920   0.7416
 11.892   0.7313
 11.865   0.7313
 11.838   0.6901
 11.811   0.7107
 11.784   0.7107
 11.757   0.7622
 11.731   0.7622
 11.704   0.8446
 11.678   0.8446
 11.652   0.7931
 11.626   0.7107
 11.600   0.7622
 11.574   0.7725
 11.548   0.7725
 11.522   0.7931
 11.497   0.8446
 11.471   0.7622
 11.446   0.7519
 11.421   0.8446
 11.396   0.9579
 11.371   0.9270
 11.346   0.9167
 11.321   0.8549
 11.297   0.9167
 11.272   0.9270
 11.248   0.9579
 11.223   0.9682
 11.199   0.9785
 11.175   0.9476
 11.151   1.0094
 11.127   1.0815
 11.103   1.0918
 11.079   1.0815
 11.056   1.1227
 11.032   1.0712
 11.009   0.9991
 10.985   0.9991
 10.962   1.1536
 10.939   1.0918
 10.916   1.0094
 10.893   0.9991
 10.870   1.0815
 10.848   1.1227
 10.825   1.1433
 10.802   1.1124
 10.780   1.2051
 10.758   1.1433
 10.735   1.1227
 10.713   1.0918
 10.691   1.1845
 10.669   1.2154
 10.647   1.2257
 10.625   1.1948
 10.604   1.2051
 10.582   1.2360
 10.560   1.3081
 10.539   1.3287
 10.518   1.3596
 10.496   1.2566
 10.475   1.2257
 10.454   1.2257
 10.433   1.3081
 10.412   1.3596
 10.391   1.4008
 10.370   1.3699
 10.350   1.4008
 10.329   1.3699
 10.309   1.4008
 10.288   1.4420
 10.268   1.5141
 10.247   1.4832
 10.227   1.4832
 10.207   1.4935
 10.187   1.5656
 10.167   1.5244
 10.147   1.4523
 10.127   1.3081
 10.108   1.3699
 10.088   1.4832
 10.068   1.4935
 10.049   1.4626
 10.029   1.5347
 10.010   1.5862
  9.991   1.6377
  9.972   1.6171
  9.952   1.5862
  9.933   1.6377
  9.914   1.7613
  9.895   1.7304
  9.877   1.7407
  9.858   1.6892
  9.839   1.6789
  9.821   1.7613
  9.802   1.8849
  9.783   1.8643
  9.765   1.8952
  9.747   1.8849
  9.728   1.9261
  9.710   2.0600
  9.692   2.1424
  9.674   2.1115
  9.656   2.1733
  9.638   2.1527
  9.620   2.1939
  9.602   2.1321
  9.585   2.2248
  9.567   2.3072
  9.549   2.3690
  9.532   2.3896
  9.514   2.5441
  9.497   2.6780
  9.479   2.7398
  9.462   2.7707
  9.445   2.9458
  9.428   3.0385
  9.411   3.2033
  9.394   3.3887
  9.377   3.5741
  9.360   3.6771
  9.343   3.8213
  9.326   4.0376
  9.309   4.3363
  9.293   4.5320
  9.276   4.7380
  9.259   4.8616
  9.243   5.0470
  9.226   5.2633
  9.210   5.4899
  9.194   5.6341
  9.178   5.7680
  9.161   5.9946
  9.145   6.2006
  9.129   6.3860
  9.113   6.5920
  9.097   6.6847
  9.081   6.7774
  9.065   6.8289
  9.049   6.9113
  9.034   6.9113
  9.018   7.0143
  9.002   7.1173
  8.987   7.1379
  8.971   6.9731
  8.956   6.8907
  8.940   6.8598
  8.925   6.7568
  8.909   6.4993
  8.894   6.3242
  8.879   6.1491
  8.864   5.9019
  8.849   5.5517
  8.834   5.3457
  8.819   5.1603
  8.804   4.9440
  8.789   4.6041
  8.774   4.3878
  8.759   4.1303
  8.744   3.9243
  8.730   3.7698
  8.715   3.5123
  8.700   3.2445
  8.686   3.0385
  8.671   2.8634
  8.657   2.7913
  8.642   2.5544
  8.628   2.3484
  8.614   2.1630
  8.599   1.9467
  8.585   1.6995
  8.571   1.4420
  8.557   1.2875
  8.543   1.1845
  8.529   1.0300
  8.515   0.9167
  8.501   0.7622
  8.487   0.6798
  8.473   0.5768
  8.459   0.5665
  8.445   0.5459
  8.431   0.4841
  8.418   0.4429
  8.404   0.3914
  8.391   0.3502
  8.377   0.3399
  8.363   0.3605
  8.350   0.3811
  8.337   0.3193
  8.323   0.3708
  8.310   0.4017
  8.297   0.3605
  8.283   0.2987
  8.270   0.3399
  8.257   0.3605
  8.244   0.3605
  8.231   0.3605
  8.218   0.3605
  8.205   0.3399
  8.192   0.3914
  8.179   0.4017
  8.166   0.4017
  8.153   0.3296
  8.140   0.3296
  8.128   0.4017
  8.115   0.4017
  8.102   0.3708
  8.090   0.4326
  8.077   0.4223
  8.064   0.4326
  8.052   0.3811
  8.039   0.3605
  8.027   0.4120
  8.015   0.4635
  8.002   0.4738
  7.990   0.4635
  7.978   0.4532
  7.965   0.4738
  7.953   0.4532
  7.941   0.4429
  7.929   0.4429
  7.917   0.4635
  7.905   0.4841
  7.893   0.4738
  7.881   0.4326
  7.869   0.5253
  7.857   0.5459
  7.845   0.5047
  7.833   0.4944
  7.821   0.5150
  7.809   0.5459
  7.798   0.5768
  7.786   0.4738
  7.774   0.4944
  7.763   0.5665
  7.751   0.5871
  7.739   0.5356
  7.728   0.5665
  7.716   0.5768
  7.705   0.5974
  7.694   0.5974
  7.682   0.5974
  7.671   0.5974
  7.659   0.6386
  7.648   0.5665
  7.637   0.5665
  7.626   0.5871
  7.614   0.6077
  7.603   0.6180
  7.592   0.6489
  7.581   0.6386
  7.570   0.6386
  7.559   0.6180
  7.548   0.6489
  7.537   0.6180
  7.526   0.5974
  7.515   0.6077
  7.504   0.6798
  7.493   0.6901
  7.483   0.7107
  7.472   0.7210
  7.461   0.6901
  7.450   0.6283
  7.440   0.6386
  7.429   0.5871
  7.418   0.6386
  7.408   0.7107
  7.397   0.7313
  7.387   0.7519
  7.376   0.7313
  7.366   0.7004
  7.355   0.7519
  7.345   0.7210
  7.334   0.7210
  7.324   0.7519
  7.314   0.7725
  7.303   0.7725
  7.293   0.8137
  7.283   0.7931
  7.273   0.7931
  7.263   0.7725
  7.252   0.7622
  7.242   0.7931
  7.232   0.8446
  7.222   0.8446
  7.212   0.8652
  7.202   0.8343
  7.192   0.8343
  7.182   0.8343
  7.172   0.8137
  7.162   0.8240
  7.152   0.9064
  7.143   0.9682
  7.133   0.9270
  7.123   0.8343
  7.113   0.8652
  7.103   0.9064
  7.094   0.9167
  7.084   0.9270
  7.074   0.9579
  7.065   0.8858
  7.055   0.8034
  7.046   0.8137
  7.036   0.8755
  7.026   0.8755
  7.017   0.8858
  7.007   0.8961
  6.998   0.9064
  6.989   0.8446
  6.979   0.8961
  6.970   0.9476
  6.960   0.9476
  6.951   0.9476
  6.942   0.9476
  6.932   0.8961
  6.923   0.9682
  6.914   0.9785
  6.905   1.0094
  6.896   0.9373
  6.886   0.8858
  6.877   0.9064
  6.868   0.9785
  6.859   0.9991
  6.850   1.0300
  6.841   0.9476
  6.832   0.9167
  6.823   0.9373
  6.814   0.9682
  6.805   0.9785
  6.796   0.9682
  6.787   0.9476
  6.778   0.9682
  6.770   0.9476
  6.761   0.9579
  6.752   0.9888
  6.743   1.0403
  6.734   1.0197
  6.726   0.9888
  6.717   0.9682
  6.708   0.9579
  6.700   0.9682
  6.691   0.9991
  6.682   1.0197
  6.674   1.0609
  6.665   1.0506
  6.657   1.0609
  6.648   1.0609
  6.640   1.0918
  6.631   1.1124
  6.623   1.0506
  6.614   0.9785
  6.606   0.9579
  6.597   0.9579
  6.589   1.0506
  6.581   1.0815
  6.572   1.0403
  6.564   1.0403
  6.556   1.0300
  6.547   0.9888
  6.539   1.0609
  6.531   1.0815
  6.523   1.0403
  6.514   0.9888
  6.506   0.9991
  6.498   1.0609
  6.490   1.0300
  6.482   0.9682
  6.474   0.9682
  6.466   1.0094
  6.458   1.0609
  6.450   1.0094
  6.442   0.9476
  6.434   0.9476
  6.426   0.9682
  6.418   0.9785
  6.410   1.0197
  6.402   1.0197
  6.394   1.0300
  6.386   1.0506
  6.378   1.0506
  6.370   0.9682
  6.363   0.9373
  6.355   0.9991
  6.347   1.0300
  6.339   1.0609
  6.332   1.0609
  6.324   0.9888
  6.316   0.9579
  6.308   0.9476
  6.301   0.9785
  6.293   0.9476
  6.286   0.9373
  6.278   0.9991
  6.270   1.0300
  6.263   1.0197
  6.255   1.0300
  6.248   0.9991
  6.240   0.9785
  6.233   0.9579
  6.225   0.9579
  6.218   0.9785
  6.210   1.0609
  6.203   1.0403
  6.195   0.9682
  6.188   0.9991
  6.181   1.0506
  6.173   1.0403
  6.166   0.9991
  6.159   0.9682
  6.151   0.9991
  6.144   1.0197
  6.137   1.0712
  6.130   1.0609
  6.122   1.0506
  6.115   1.0609
  6.108   1.0712
  6.101   0.9785
  6.094   0.9476
  6.086   0.9682
  6.079   0.9373
  6.072   0.9064
  6.065   0.8858
  6.058   0.8961
  6.051   0.9270
  6.044   0.9270
  6.037   0.9270
  6.030   0.8755
  6.023   0.8446
  6.016   0.7931
  6.009   0.7004
  6.002   0.6695
  5.995   0.7313
  5.988   0.7107
  5.981   0.6283
  5.974   0.6283
  5.967   0.6592
  5.960   0.6180
  5.954   0.6077
  5.947   0.5871
  5.940   0.5768
  5.933   0.5871
  5.926   0.6283
  5.920   0.6386
  5.913   0.5974
  5.906   0.6180
  5.899   0.6901
  5.893   0.7313
  5.886   0.7107
  5.879   0.7004
  5.873   0.7416
  5.866   0.7107
  5.859   0.7107
  5.853   0.7210
  5.846   0.7210
  5.840   0.7519
  5.833   0.8137
  5.827   0.8137
  5.820   0.7931
  5.813   0.7828
  5.807   0.7416
  5.800   0.8137
  5.794   0.8652
  5.788   0.8343
  5.781   0.8652
  5.775   0.8755
  5.768   0.8858
  5.762   0.9373
  5.755   0.9476
  5.749   0.9270
  5.743   0.9270
  5.736   0.9991
  5.730   1.0609
  5.724   1.0094
  5.717   1.0506
  5.711   1.0815
  5.705   1.1330
  5.698   1.1124
  5.692   1.1330
  5.686   1.1433
  5.680   1.1948
  5.674   1.2566
  5.667   1.2875
  5.661   1.2875
  5.655   1.3287
  5.649   1.3699
  5.643   1.4008
  5.637   1.4214
  5.630   1.4523
  5.624   1.4729
  5.618   1.4317
  5.612   1.4214
  5.606   1.4832
  5.600   1.5450
  5.594   1.5759
  5.588   1.5862
  5.582   1.5965
  5.576   1.5759
  5.570   1.5965
  5.564   1.6274
  5.558   1.6789
  5.552   1.7201
  5.546   1.7510
  5.540   1.7716
  5.534   1.8231
  5.528   1.8231
  5.523   1.7922
  5.517   1.7922
  5.511   1.8334
  5.505   1.8952
  5.499   1.9261
  5.493   1.9467
  5.487   1.9467
  5.482   1.9055
  5.476   1.9570
  5.470   1.9673
  5.464   1.9879
  5.459   2.0291
  5.453   2.0600
  5.447   2.0497
  5.441   2.0600
  5.436   2.0703
  5.430   2.1012
  5.424   2.1115
  5.419   2.1115
  5.413   2.1321
  5.407   2.1424
  5.402   2.1218
  5.396   2.1630
  5.390   2.1836
  5.385   2.1321
  5.379   2.1527
  5.374   2.2042
  5.368   2.1630
  5.363   2.1630
  5.357   2.1733
  5.352   2.1733
  5.346   2.2145
  5.341   2.2351
  5.335   2.2145
  5.330   2.2248
  5.324   2.2557
  5.319   2.2763
  5.313   2.2248
  5.308   2.2557
  5.302   2.3175
  5.297   2.3278
  5.291   2.3175
  5.286   2.3587
  5.281   2.3484
  5.275   2.3278
  5.270   2.3175
  5.265   2.3278
  5.259   2.3793
  5.254   2.3690
  5.249   2.3587
  5.243   2.3381
  5.238   2.3587
  5.233   2.3278
  5.227   2.3175
  5.222   2.3484
  5.217   2.3690
  5.212   2.3999
  5.206   2.3999
  5.201   2.4205
  5.196   2.4308
  5.191   2.4411
  5.186   2.4205
  5.180   2.3896
  5.175   2.4102
  5.170   2.4617
  5.165   2.4411
  5.160   2.4308
  5.155   2.4102
  5.150   2.4102
  5.145   2.4308
  5.139   2.4411
  5.134   2.4205
  5.129   2.3793
  5.124   2.3896
  5.119   2.3896
  5.114   2.3793
  5.109   2.4308
  5.104   2.4411
  5.099   2.4617
  5.094   2.4514
  5.089   2.4102
  5.084   2.3999
  5.079   2.4205
  5.074   2.4514
  5.069   2.4514
  5.064   2.4411
  5.059   2.3999
  5.054   2.3793
  5.049   2.3999
  5.044   2.4102
  5.040   2.4308
  5.035   2.4514
  5.030   2.4308
  5.025   2.4205
  5.020   2.3484
  5.015   2.3175
  5.010   2.3587
  5.005   2.3896
  5.001   2.3175
  4.996   2.2866
  4.991   2.3278
  4.986   2.3381
  4.981   2.2969
  4.977   2.2351
  4.972   2.2145
  4.967   2.2145
  4.962   2.2351
  4.958   2.2557
  4.953   2.2351
  4.948   2.2145
  4.943   2.2351
  4.939   2.1939
  4.934   2.1630
  4.929   2.1424
  4.925   2.1115
  4.920   2.1012
  4.915   2.0703
  4.911   2.0188
  4.906   2.0085
  4.901   2.0291
  4.897   1.9776
  4.892   1.9158
  4.888   1.8952
  4.883   1.8334
  4.878   1.8025
  4.874   1.7716
  4.869   1.7922
  4.865   1.8025
  4.860   1.7819
  4.856   1.7613
  4.851   1.7304
  4.846   1.6995
  4.842   1.6892
  4.837   1.6583
  4.833   1.6583
  4.828   1.6583
  4.824   1.6995
  4.819   1.7098
  4.815   1.6892
  4.810   1.7098
  4.806   1.7304
  4.802   1.7201
  4.797   1.6892
  4.793   1.6274
  4.788   1.5656
  4.784   1.5656
  4.779   1.5965
  4.775   1.5759
  4.771   1.5965
  4.766   1.6583
  4.762   1.7201
  4.758   1.7098
  4.753   1.6377
  4.749   1.6068
  4.744   1.6171
  4.740   1.6171
  4.736   1.5862
  4.731   1.5759
  4.727   1.5759
  4.723   1.5656
  4.719   1.5862
  4.714   1.6377
  4.710   1.6068
  4.706   1.5965
  4.701   1.6274
  4.697   1.6583
  4.693   1.6480
  4.689   1.5759
  4.684   1.5656
  4.680   1.6274
  4.676   1.6995
  4.672   1.7304
  4.668   1.6686
  4.663   1.6274
  4.659   1.6377
  4.655   1.6686
  4.651   1.6789
  4.647   1.7098
  4.643   1.6892
  4.638   1.6480
  4.634   1.5862
  4.630   1.5862
  4.626   1.6377
  4.622   1.6274
  4.618   1.5553
  4.614   1.5141
  4.610   1.5759
  4.605   1.6480
  4.601   1.6274
  4.597   1.5450
  4.593   1.5038
  4.589   1.5038
  4.585   1.5038
  4.581   1.4935
  4.577   1.4935
  4.573   1.5141
  4.569   1.4935
  4.565   1.4935
  4.561   1.5553
  4.557   1.5862
  4.553   1.5244
  4.549   1.4832
  4.545   1.5553
  4.541   1.5656
  4.537   1.4935
  4.533   1.4626
  4.529   1.4832
  4.525   1.4729
  4.521   1.4420
  4.517   1.4832
  4.513   1.4729
  4.509   1.4111
  4.505   1.4317
  4.502   1.4626
  4.498   1.4214
  4.494   1.3802
  4.490   1.3905
  4.486   1.3802
  4.482   1.4214
  4.478   1.4214
  4.474   1.4008
  4.470   1.3905
  4.467   1.3493
  4.463   1.3699
  4.459   1.3287
  4.455   1.3081
  4.451   1.3184
  4.447   1.3287
  4.444   1.3699
  4.440   1.4214
  4.436   1.3390
  4.432   1.2772
  4.428   1.3184
  4.425   1.3287
  4.421   1.3184
  4.417   1.3493
  4.413   1.3699
  4.410   1.3493
  4.406   1.3184
  4.402   1.3287
  4.398   1.3287
  4.395   1.3184
  4.391   1.2875
  4.387   1.2875
  4.384   1.2978
  4.380   1.3184
  4.376   1.2772
  4.372   1.2978
  4.369   1.3596
  4.365   1.3699
  4.361   1.3596
  4.358   1.2978
  4.354   1.2772
  4.350   1.2978
  4.347   1.3184
  4.343   1.3699
  4.340   1.2875
  4.336   1.2051
  4.332   1.2978
  4.329   1.3184
  4.325   1.2669
  4.321   1.2772
  4.318   1.3287
  4.314   1.3699
  4.311   1.3287
  4.307   1.2978
  4.304   1.3184
  4.300   1.3596
  4.296   1.3493
  4.293   1.2772
  4.289   1.2875
  4.286   1.4523
  4.282   1.4626
  4.279   1.3905
  4.275   1.3081
  4.272   1.2463
  4.268   1.3081
  4.265   1.4111
  4.261   1.4214
  4.258   1.4008
  4.254   1.3905
  4.251   1.4008
  4.247   1.3905
  4.244   1.4420
  4.240   1.4729
  4.237   1.4523
  4.233   1.3699
  4.230   1.3390
  4.226   1.3802
  4.223   1.4626
  4.219   1.4523
  4.216   1.4111
  4.213   1.3802
  4.209   1.3905
  4.206   1.3699
  4.202   1.3493
  4.199   1.3905
  4.196   1.3699
  4.192   1.3493
  4.189   1.3905
  4.185   1.3596
  4.182   1.3905
  4.179   1.4935
  4.175   1.4832
  4.172   1.4832
  4.169   1.5038
  4.165   1.4935
  4.162   1.4935
  4.159   1.4729
  4.155   1.4317
  4.152   1.4214
  4.149   1.4935
  4.145   1.5038
  4.142   1.5141
  4.139   1.5141
  4.135   1.5141
  4.132   1.5038
  4.129   1.5141
  4.126   1.5244
  4.122   1.4935
  4.119   1.4935
  4.116   1.5553
  4.112   1.5450
  4.109   1.5450
  4.106   1.5553
  4.103   1.5759
  4.099   1.5347
  4.096   1.5656
  4.093   1.6171
  4.090   1.6686
  4.086   1.7201
  4.083   1.6892
  4.080   1.6171
  4.077   1.7510
  4.074   1.8231
  4.070   1.7304
  4.067   1.6789
  4.064   1.6892
  4.061   1.6995
  4.058   1.7510
  4.055   1.8231
  4.051   1.8334
  4.048   1.8334
  4.045   1.8643
  4.042   1.9055
  4.039   1.9364
  4.036   1.9570
  4.032   1.9467
  4.029   1.9570
  4.026   1.9673
  4.023   2.0188
  4.020   2.1218
  4.017   2.1115
  4.014   2.1218
  4.011   2.1630
  4.008   2.2248
  4.004   2.2351
  4.001   2.2660
  3.998   2.3690
  3.995   2.4102
  3.992   2.3999
  3.989   2.3793
  3.986   2.3587
  3.983   2.4308
  3.980   2.4514
  3.977   2.3999
  3.974   2.4514
  3.971   2.5544
  3.968   2.5956
  3.965   2.6471
  3.962   2.7604
  3.959   2.8325
  3.956   2.7913
  3.953   2.7810
  3.950   2.8222
  3.947   2.8325
  3.944   2.8840
  3.941   2.9458
  3.938   2.9664
  3.935   3.0282
  3.932   3.0797
  3.929   3.1415
  3.926   3.0797
  3.923   3.0694
  3.920   3.1209
  3.917   3.2342
  3.914   3.2548
  3.911   3.2651
  3.908   3.3166
  3.905   3.3990
  3.902   3.3990
  3.899   3.3990
  3.896   3.4917
  3.893   3.4711
  3.890   3.4299
  3.887   3.5741
  3.884   3.6256
  3.882   3.6050
  3.879   3.6050
  3.876   3.5844
  3.873   3.6256
  3.870   3.7389
  3.867   3.7801
  3.864   3.7801
  3.861   3.8007
  3.858   3.8419
  3.856   3.8007
  3.853   3.7801
  3.850   3.8522
  3.847   3.9861
  3.844   3.9758
  3.841   3.9449
  3.838   3.9346
  3.836   3.9243
  3.833   3.9552
  3.830   4.0273
  3.827   4.0170
  3.824   3.9655
  3.822   4.0067
  3.819   4.1303
  3.816   4.1200
  3.813   4.1200
  3.810   4.1509
  3.807   4.1200
  3.805   4.0891
  3.802   4.0788
  3.799   4.1612
  3.796   4.1715
  3.794   4.1200
  3.791   4.1303
  3.788   4.1303
  3.785   4.2127
  3.782   4.1921
  3.780   4.1509
  3.777   4.1509
  3.774   4.2127
  3.771   4.2333
  3.769   4.1612
  3.766   4.1303
  3.763   4.1818
  3.761   4.1509
  3.758   4.1715
  3.755   4.1612
  3.752   4.1200
  3.750   4.1303
  3.747   4.2024
  3.744   4.1715
  3.742   4.1200
  3.739   4.1303
  3.736   4.1818
  3.733   4.1406
  3.731   4.1097
  3.728   4.1612
  3.725   4.2024
  3.723   4.0891
  3.720   4.0067
  3.717   3.9346
  3.715   3.8934
  3.712   3.9346
  3.709   4.0376
  3.707   4.0685
  3.704   4.1097
  3.702   4.0994
  3.699   4.0479
  3.696   3.9758
  3.694   3.9552
  3.691   4.0170
  3.688   4.1097
  3.686   4.0376
  3.683   3.9449
  3.680   3.8934
  3.678   3.8831
  3.675   3.8625
  3.673   3.8419
  3.670   3.9037
  3.667   3.8522
  3.665   3.7595
  3.662   3.7389
  3.660   3.6668
  3.657   3.6874
  3.655   3.6874
  3.652   3.6977
  3.649   3.6668
  3.647   3.6359
  3.644   3.5741
  3.642   3.5432
  3.639   3.5741
  3.637   3.5947
  3.634   3.5535
  3.632   3.5123
  3.629   3.4505
  3.626   3.3887
  3.624   3.3681
  3.621   3.3578
  3.619   3.4196
  3.616   3.4299
  3.614   3.3784
  3.611   3.2857
  3.609   3.2651
  3.606   3.3578
  3.604   3.3166
  3.601   3.2342
  3.599   3.1518
  3.596   3.1518
  3.594   3.1518
  3.591   3.1003
  3.589   3.1518
  3.586   3.2548
  3.584   3.1930
  3.581   3.1312
  3.579   3.0282
  3.576   2.9973
  3.574   3.0179
  3.571   2.9870
  3.569   2.9561
  3.567   2.9252
  3.564   2.8634
  3.562   2.9252
  3.559   2.8737
  3.557   2.7604
  3.554   2.8016
  3.552   2.8737
  3.549   2.8119
  3.547   2.7501
  3.545   2.6986
  3.542   2.7398
  3.540   2.7913
  3.537   2.7295
  3.535   2.6986
  3.533   2.6677
  3.530   2.6162
  3.528   2.6162
  3.525   2.5750
  3.523   2.4926
  3.521   2.4617
  3.518   2.5544
  3.516   2.5441
  3.513   2.4411
  3.511   2.4617
  3.509   2.4720
  3.506   2.3793
  3.504   2.3278
  3.502   2.3381
  3.499   2.3175
  3.497   2.2042
  3.494   2.1527
  3.492   2.1836
  3.490   2.1527
  3.487   2.1321
  3.485   2.2454
  3.483   2.2660
  3.480   2.1733
  3.478   2.1012
  3.476   2.1012
  3.473   2.1527
  3.471   2.0703
  3.469   1.9982
  3.466   2.0600
  3.464   2.1115
  3.462   2.0703
  3.460   1.9570
  3.457   1.9570
  3.455   1.8952
  3.453   1.9364
  3.450   1.9570
  3.448   1.9055
  3.446   1.8952
  3.443   1.9158
  3.441   1.8952
  3.439   1.9673
  3.437   1.8746
  3.434   1.7510
  3.432   1.8025
  3.430   1.8437
  3.428   1.8025
  3.425   1.7613
  3.423   1.7304
  3.421   1.6686
  3.418   1.6789
  3.416   1.7098
  3.414   1.7201
  3.412   1.6686
  3.409   1.5965
  3.407   1.6583
  3.405   1.6995
  3.403   1.6892
  3.401   1.6995
  3.398   1.6995
  3.396   1.6171
  3.394   1.5553
  3.392   1.5450
  3.389   1.5553
  3.387   1.5965
  3.385   1.7304
  3.383   1.6995
  3.381   1.6274
  3.378   1.5965
  3.376   1.5347
  3.374   1.5347
  3.372   1.4935
  3.370   1.4935
  3.367   1.4729
  3.365   1.5553
  3.363   1.5862
  3.361   1.5141
  3.359   1.5244
  3.357   1.4832
  3.354   1.5347
  3.352   1.6068
  3.350   1.5141
  3.348   1.3802
  3.346   1.3699
  3.344   1.3493
  3.341   1.4214
  3.339   1.4111
  3.337   1.4214
  3.335   1.4111
  3.333   1.4523
  3.331   1.3802
  3.329   1.3287
  3.326   1.4214
  3.324   1.4317
  3.322   1.3802
  3.320   1.4523
  3.318   1.5141
  3.316   1.5038
  3.314   1.4626
  3.312   1.4729
  3.309   1.4729
  3.307   1.4214
  3.305   1.4317
  3.303   1.5141
  3.301   1.4523
  3.299   1.3596
  3.297   1.3493
  3.295   1.4317
  3.293   1.4626
  3.291   1.4317
  3.288   1.3596
  3.286   1.3493
  3.284   1.3493
  3.282   1.4729
  3.280   1.4523
  3.278   1.4214
  3.276   1.4111
  3.274   1.3596
  3.272   1.3802
  3.270   1.3390
  3.268   1.3081
  3.266   1.3802
  3.264   1.3390
  3.262   1.3184
  3.259   1.4111
  3.257   1.4832
  3.255   1.4008
  3.253   1.4214
  3.251   1.3802
  3.249   1.3905
  3.247   1.4420
  3.245   1.3802
  3.243   1.3287
  3.241   1.3699
  3.239   1.3493
  3.237   1.3699
  3.235   1.4214
  3.233   1.4008
  3.231   1.3493
  3.229   1.2978
  3.227   1.3184
  3.225   1.3699
  3.223   1.4214
  3.221   1.4008
  3.219   1.3905
  3.217   1.4111
  3.215   1.4008
  3.213   1.4420
  3.211   1.4317
  3.209   1.4420
  3.207   1.3699
  3.205   1.3081
  3.203   1.3081
  3.201   1.4935
  3.199   1.5656
  3.197   1.5038
  3.195   1.3905
  3.193   1.3699
  3.191   1.3699
  3.189   1.3802
  3.187   1.4832
  3.185   1.5244
  3.183   1.4420
  3.182   1.4420
  3.180   1.4317
  3.178   1.4935
  3.176   1.5038
  3.174   1.5038
  3.172   1.5141
  3.170   1.4729
  3.168   1.4420
  3.166   1.4832
  3.164   1.4523
  3.162   1.4317
  3.160   1.4420
  3.158   1.4523
  3.156   1.4729
  3.154   1.4935
  3.152   1.4832
  3.151   1.5450
  3.149   1.5553
  3.147   1.5553
  3.145   1.6171
  3.143   1.6480
  3.141   1.5862
  3.139   1.5759
  3.137   1.5553
  3.135   1.5656
  3.133   1.6274
  3.132   1.6995
  3.130   1.6583
  3.128   1.6789
  3.126   1.6789
  3.124   1.5965
  3.122   1.5450
  3.120   1.6274
  3.118   1.6892
  3.117   1.6274
  3.115   1.5347
  3.113   1.5759
  3.111   1.6686
  3.109   1.6480
  3.107   1.5244
  3.105   1.5862
  3.103   1.6274
  3.102   1.5862
  3.100   1.5656
  3.098   1.6892
  3.096   1.8025
  3.094   1.7716
  3.092   1.6583
  3.091   1.6171
  3.089   1.5244
  3.087   1.4832
  3.085   1.4729
  3.083   1.4832
  3.081   1.5450
  3.079   1.6171
  3.078   1.6686
  3.076   1.6995
  3.074   1.6274
  3.072   1.5759
  3.070   1.5759
  3.069   1.6995
  3.067   1.5965
  3.065   1.4729
  3.063   1.4832
  3.061   1.5450
  3.060   1.4420
  3.058   1.2978
  3.056   1.2978
  3.054   1.4111
  3.052   1.4420
  3.051   1.4832
  3.049   1.5038
  3.047   1.4935
  3.045   1.3802
  3.043   1.4111
  3.042   1.4626
  3.040   1.4008
  3.038   1.3493
  3.036   1.3699
  3.034   1.4111
  3.033   1.3802
  3.031   1.3493
  3.029   1.3493
  3.027   1.3493
  3.026   1.3905
  3.024   1.4523
  3.022   1.4523
  3.020   1.5244
  3.019   1.6583
  3.017   1.6171
  3.015   1.5244
  3.013   1.4729
  3.012   1.4214
  3.010   1.4317
  3.008   1.4626
  3.006   1.3802
  3.005   1.3802
  3.003   1.5347
  3.001   1.5141
  2.999   1.3699
  2.998   1.3493
  2.996   1.3493
  2.994   1.4214
  2.992   1.4523
  2.991   1.4214
  2.989   1.4008
  2.987   1.3802
  2.986   1.4626
  2.984   1.6068
  2.982   1.4935
  2.980   1.4626
  2.979   1.5244
  2.977   1.4111
  2.975   1.2360
  2.974   1.2154
  2.972   1.1639
  2.970   1.3905
  2.968   1.5553
  2.967   1.4832
  2.965   1.4317
  2.963   1.4214
  2.962   1.3287
  2.960   1.3287
  2.958   1.4214
  2.957   1.4626
  2.955   1.3081
  2.953   1.3287
  2.952   1.4420
  2.950   1.4214
  2.948   1.2566
  2.947   1.2154
  2.945   1.1021
  2.943   0.9785
  2.942   1.1227
  2.940   1.3802
  2.938   1.2772
  2.937   1.1639
  2.935   1.1845
  2.933   1.1639
  2.932   1.0300
  2.930   1.0609
  2.928   1.2463
  2.927   1.2875
  2.925   1.0403
  2.923   0.9270
  2.922   1.0609
  2.920   1.1330
  2.918   1.0712
  2.917   0.9888
  2.915   0.7725
  2.913   0.7519
  2.912   0.8034
  2.910   0.8755
  2.909   0.9888
  2.907   1.0815
  2.905   0.9991
  2.904   0.9167
  2.902   0.8446
  2.900   0.7931
  2.899   0.8240
  2.897   0.9270
  2.896   0.8961
  2.894   0.8137
  2.892   0.7725
  2.891   0.7004
  2.889   0.6180
  2.887   0.6798
  2.886   0.7931
  2.884   0.8034
  2.883   0.8137
  2.881   0.6695
  2.879   0.4635
  2.878   0.4635
  2.876   0.5562
  2.875   0.6798
  2.873   0.5665
  2.871   0.5356
  2.870   0.6386
  2.868   0.5871
  2.867   0.6695
  2.865   0.7931
  2.864   0.7313
  2.862   0.7416
  2.860   0.6798
  2.859   0.7107
  2.857   0.6901
  2.856   0.5459
  2.854   0.5562
  2.853   0.6077
  2.851   0.5665
  2.849   0.5356
  2.848   0.4532
  2.846   0.4738
  2.845   0.4635
  2.843   0.5871
  2.842   0.7210
  2.840   0.6283
  2.838   0.4738
  2.837   0.5047
  2.835   0.5356
  2.834   0.5871
  2.832   0.5871
  2.831   0.6077
  2.829   0.5253
  2.828   0.5459
  2.826   0.5974
  2.825   0.5562
  2.823   0.4635
  2.821   0.5150
  2.820   0.3914
  2.818   0.4429
  2.817   0.5253
  2.815   0.5871
  2.814   0.4326
  2.812   0.3399
  2.811   0.4841
  2.809   0.5356
  2.808   0.5562
  2.806   0.6798
  2.805   0.5974
  2.803   0.5665
  2.802   0.4429
  2.800   0.4120
  2.799   0.3811
  2.797   0.4635
  2.796   0.4738
  2.794   0.5974
  2.793   0.5356
  2.791   0.4429
  2.790   0.5047
  2.788   0.4532
  2.787   0.2163
  2.785   0.3296
  2.784   0.5562
  2.782   0.5047
  2.781   0.4738
  2.779   0.5150
  2.778   0.3708
  2.776   0.3296
  2.775   0.3811
  2.773   0.3399
  2.772   0.2575
  2.770   0.2987
  2.769   0.3502
  2.767   0.3296
  2.766   0.3399
  2.764   0.2987
  2.763   0.2987
  2.761   0.3708
  2.760   0.4326
  2.758   0.5768
  2.757   0.5768
  2.756   0.3811
  2.754   0.2163
  2.753   0.2678
  2.751   0.3296
  2.750   0.4017
  2.748   0.5047
  2.747   0.6077
  2.745   0.4429
  2.744   0.4017
  2.742   0.3811
  2.741   0.4326
  2.740   0.4841
  2.738   0.4738
  2.737   0.3914
  2.735   0.5150
  2.734   0.5974
  2.732   0.5562
  2.731   0.5562
  2.729   0.4841
  2.728   0.4120
  2.727   0.4223
  2.725   0.5150
  2.724   0.8652
  2.722   1.0815
  2.721   0.9167
  2.719   0.5871
  2.718   0.5562
  2.717   0.7519
  2.715   0.7313
  2.714   0.7622
  2.712   0.8446
  2.711   0.8755
  2.709   1.0300
  2.708   0.8343
  2.707   0.7828
  2.705   0.8652
  2.704   0.8755
  2.702   0.9476
  2.701   1.0609
  2.700   1.1330
  2.698   1.1948
  2.697   1.0300
  2.695   1.0918
  2.694   1.1948
  2.693   1.3184
  2.691   1.4420
  2.690   1.4111
  2.688   1.3802
  2.687   1.4523
  2.686   1.3596
  2.684   1.3287
  2.683   1.4626
  2.681   1.3596
  2.680   1.3390
  2.679   1.4935
  2.677   1.5759
  2.676   1.6583
  2.675   1.7407
  2.673   1.7098
  2.672   1.6480
  2.670   1.6789
  2.669   1.7922
  2.668   1.9055
  2.666   1.8746
  2.665   1.9570
  2.664   1.9776
  2.662   1.8643
  2.661   1.8128
  2.659   1.9776
  2.658   2.0188
  2.657   1.9364
  2.655   1.9055
  2.654   1.9570
  2.653   2.0600
  2.651   2.2454
  2.650   2.2351
  2.649   2.0188
  2.647   1.9879
  2.646   2.1218
  2.645   2.0909
  2.643   2.1424
  2.642   2.2660
  2.640   2.2763
  2.639   2.1939
  2.638   2.3587
  2.636   2.3999
  2.635   2.3072
  2.634   2.4102
  2.632   2.5750
  2.631   2.4720
  2.630   2.3587
  2.628   2.4823
  2.627   2.5853
  2.626   2.5441
  2.624   2.5132
  2.623   2.6162
  2.622   2.6677
  2.620   2.5853
  2.619   2.6368
  2.618   2.7295
  2.617   2.7913
  2.615   2.8119
  2.614   2.7398
  2.613   2.6471
  2.611   2.6471
  2.610   2.5544
  2.609   2.6265
  2.607   2.6574
  2.606   2.7192
  2.605   2.6574
  2.603   2.6162
  2.602   2.7501
  2.601   2.7192
  2.599   2.6162
  2.598   2.6883
  2.597   2.7810
  2.596   2.9149
  2.594   3.1003
  2.593   2.9664
  2.592   2.7398
  2.590   2.9046
  2.589   2.9561
  2.588   2.7089
  2.586   2.5338
  2.585   2.6986
  2.584   2.9355
  2.583   2.9252
  2.581   2.8531
  2.580   2.7604
  2.579   2.6677
  2.577   2.7398
  2.576   2.7810
  2.575   2.8428
  2.574   2.7707
  2.572   2.9664
  2.571   3.0076
  2.570   2.9561
  2.569   2.9664
  2.567   2.9355
  2.566   2.8222
  2.565   2.8531
  2.563   2.9458
  2.562   2.8737
  2.561   2.8428
  2.560   2.8222
  2.558   2.7810
  2.557   2.8943
  2.556   2.8943
  2.555   2.8325
  2.553   2.8428
  2.552   2.8222
  2.551   2.8119
  2.550   2.8531
  2.548   2.9561
  2.547   3.0591
  2.546   2.7810
  2.545   2.7192
  2.543   2.9046
  2.542   2.9767
  2.541   2.9458
  2.540   2.9252
  2.538   2.9355
  2.537   2.9355
  2.536   2.8531
  2.535   2.9870
  2.533   3.1518
  2.532   3.1312
  2.531   2.9252
  2.530   2.7707
  2.528   2.7810
  2.527   2.9767
  2.526   2.9767
  2.525   3.0385
  2.524   2.9664
  2.522   2.8737
  2.521   2.9252
  2.520   3.0385
  2.519   2.9561
  2.517   3.0282
  2.516   2.9870
  2.515   3.0900
  2.514   3.0694
  2.513   3.0282
  2.511   3.0385
  2.510   3.1724
  2.509   3.1724
  2.508   3.2445
  2.506   3.1518
  2.505   2.9973
  2.504   3.2136
  2.503   3.3578
  2.502   3.2342
  2.500   3.3475
  2.500   3.3475
  2.498   3.2512
  2.496   3.4682
  2.494   3.1860
  2.492   3.4048
  2.490   3.3282
  2.488   3.2366
  2.486   3.3759
  2.484   3.5613
  2.482   3.2481
  2.480   3.3741
  2.478   3.4748
  2.476   3.4423
  2.474   3.4315
  2.472   3.4105
  2.470   3.3608
  2.468   3.4145
  2.466   3.5068
  2.464   3.5724
  2.462   3.5152
  2.460   3.6346
  2.458   3.7768
  2.456   3.6081
  2.454   3.7014
  2.452   3.7297
  2.450   3.7359
  2.448   3.7014
  2.446   3.7666
  2.444   3.7655
  2.442   3.8761
  2.440   3.6317
  2.438   4.0443
  2.436   3.8286
  2.434   3.8560
  2.432   3.8486
  2.430   3.8780
  2.428   3.8895
  2.426   3.9052
  2.424   3.9321
  2.422   3.9441
  2.420   4.0334
  2.418   3.9414
  2.416   3.9190
  2.414   4.0526
  2.412   4.0557
  2.410   4.0670
  2.408   4.1894
  2.406   4.1837
  2.404   4.1228
  2.402   4.1960
  2.400   4.1515
  2.398   4.2170
  2.396   4.3010
  2.394   4.2189
  2.392   4.2871
  2.390   4.3133
  2.388   4.3770
  2.386   4.3544
  2.384   4.3833
  2.382   4.3641
  2.380   4.5000
  2.378   4.4473
  2.376   4.5296
  2.374   4.5790
  2.372   4.5723
  2.370   4.6239
  2.368   4.6230
  2.366   4.6770
  2.364   4.7309
  2.362   4.7516
  2.360   4.7756
  2.358   4.8259
  2.356   4.8644
  2.354   4.9114
  2.352   4.9132
  2.350   4.8197
  2.348   4.8437
  2.346   4.9179
  2.344   4.9032
  2.342   4.9617
  2.340   4.9654
  2.338   4.9845
  2.336   5.0489
  2.334   4.9423
  2.332   5.0305
  2.330   5.0740
  2.328   5.0695
  2.326   5.0603
  2.324   5.1272
  2.322   5.1695
  2.320   5.1677
  2.318   5.1718
  2.316   5.1618
  2.314   5.1786
  2.312   5.2304
  2.310   5.2583
  2.308   5.2442
  2.306   5.3141
  2.304   5.2971
  2.302   5.2704
  2.300   5.2600
  2.298   5.2780
  2.296   5.2726
  2.294   5.2616
  2.292   5.2838
  2.290   5.3057
  2.288   5.3167
  2.286   5.2648
  2.284   5.2398
  2.282   5.2647
  2.280   5.2856
  2.278   5.2601
  2.276   5.2257
  2.274   5.2132
  2.272   5.2339
  2.270   5.2192
  2.268   5.1527
  2.266   5.1202
  2.264   5.0411
  2.262   4.9983
  2.260   5.0064
  2.258   4.9966
  2.256   4.9226
  2.254   4.8958
  2.252   4.8793
  2.250   4.8706
  2.248   4.8821
  2.246   4.8263
  2.244   4.8152
  2.242   4.8309
  2.240   4.7737
  2.238   4.8398
  2.236   4.8708
  2.234   4.9141
  2.232   4.8989
  2.230   4.8737
  2.228   4.8510
  2.226   4.8268
  2.224   4.8208
  2.222   4.8266
  2.220   4.8241
  2.218   4.8221
  2.216   4.7675
  2.214   4.7587
  2.212   4.7336
  2.210   4.7126
  2.208   4.6833
  2.206   4.6669
  2.204   4.6338
  2.202   4.5762
  2.200   4.5640
  2.198   4.5383
  2.196   4.5458
  2.194   4.5036
  2.192   4.4491
  2.190   4.3933
  2.188   4.3791
  2.186   4.3601
  2.184   4.3338
  2.182   4.3162
  2.180   4.2962
  2.178   4.3060
  2.176   4.2882
  2.174   4.2843
  2.172   4.3079
  2.170   4.3425
  2.168   4.3784
  2.166   4.3508
  2.164   4.3398
  2.162   4.4157
  2.160   4.4831
  2.158   4.4948
  2.156   4.4829
  2.154   4.5033
  2.152   4.5105
  2.150   4.5437
  2.148   4.5680
  2.146   4.5897
  2.144   4.5722
  2.142   4.5742
  2.140   4.5812
  2.138   4.5529
  2.136   4.5346
  2.134   4.5254
  2.132   4.4797
  2.130   4.4463
  2.128   4.3965
  2.126   4.4319
  2.124   4.4388
  2.122   4.4372
  2.120   4.5015
  2.118   4.4924
  2.116   4.5294
  2.114   4.5609
  2.112   4.5639
  2.110   4.6062
  2.108   4.6612
  2.106   4.6565
  2.104   4.6663
  2.102   4.7112
  2.100   4.8043
  2.098   4.7294
  2.096   4.7020
  2.094   4.7454
  2.092   4.8124
  2.090   4.8172
  2.088   4.8044
  2.086   4.7843
  2.084   4.8267
  2.082   4.8285
  2.080   4.8805
  2.078   4.8403
  2.076   4.8150
  2.074   4.8587
  2.072   4.8868
  2.070   4.8644
  2.068   4.8664
  2.066   4.8869
  2.064   4.8492
  2.062   4.8705
  2.060   4.8737
  2.058   4.8528
  2.056   4.9115
  2.054   4.8628
  2.052   4.9112
  2.050   4.8092
  2.048   4.7068
  2.046   4.7457
  2.044   4.7487
  2.042   4.8366
  2.040   4.7999
  2.038   4.8525
  2.036   4.8066
  2.034   4.7928
  2.032   4.7648
  2.030   4.8231
  2.028   4.8237
  2.026   4.8771
  2.024   4.8438
  2.022   4.8077
  2.020   4.7536
  2.018   4.7767
  2.016   4.7252
  2.014   4.7664
  2.012   4.6932
  2.010   4.6831
  2.008   4.5855
  2.006   4.5800
  2.004   4.5589
  2.002   4.5134
  2.000   4.4748
  1.998   4.4073
  1.996   4.4029
  1.994   4.2681
  1.992   4.3232
  1.990   4.2652
  1.988   4.1202
  1.986   4.1826
  1.984   4.1902
  1.982   4.1204
  1.980   4.0799
  1.978   4.0096
  1.976   4.0090
  1.974   4.0393
  1.972   3.9895
  1.970   3.8927
  1.968   3.8774
  1.966   3.8757
  1.964   3.7663
  1.962   3.7145
  1.960   3.6922
  1.958   3.7110
  1.956   3.7283
  1.954   3.6780
  1.952   3.7276
  1.950   3.7819
  1.948   3.8282
  1.946   3.9989
  1.944   3.9921
  1.942   4.2425
  1.940   4.1379
  1.938   4.4009
  1.936   4.3749
  1.934   4.5054
  1.932   4.6096
  1.930   4.6925
  1.928   4.8220
  1.926   4.8205
  1.924   5.0337
  1.922   5.1373
  1.920   5.1961
  1.918   5.3625
  1.916   5.4323
  1.914   5.5257
  1.912   5.6746
  1.910   5.7845
  1.908   5.8999
  1.906   6.0274
  1.904   6.1123
  1.902   6.2569
  1.900   6.3582
  1.898   6.5153
  1.896   6.6278
  1.894   6.7215
  1.892   6.8501
  1.890   6.9194
  1.888   7.0267
  1.886   7.1394
  1.884   7.2554
  1.882   7.2832
  1.880   7.4460
  1.878   7.5298
  1.876   7.6853
  1.874   7.5976
  1.872   7.7304
  1.870   7.9094
  1.868   7.9208
  1.866   8.0537
  1.864   8.1104
  1.862   8.1468
  1.860   8.0484
  1.858   8.2324
  1.856   8.2555
  1.854   8.2575
  1.852   8.3710
  1.850   8.3927
  1.848   8.4733
  1.846   8.5181
  1.844   8.5437
  1.842   8.4273
  1.840   8.4816
  1.838   8.5202
  1.836   8.5666
  1.834   8.5824
  1.832   8.5297
  1.830   8.5910
  1.828   8.5665
  1.826   8.6660
  1.824   8.6340
  1.822   8.5711
  1.820   8.5813
  1.818   8.6181
  1.816   8.6854
  1.814   8.5402
  1.812   8.5422
  1.810   8.6499
  1.808   8.5807
  1.806   8.6090
  1.804   8.5197
  1.802   8.5128
  1.800   8.4838
  1.798   8.5865
  1.796   8.4613
  1.794   8.4497
  1.792   8.4357
  1.790   8.4288
  1.788   8.4458
  1.786   8.3690
  1.784   8.3631
  1.782   8.3890
  1.780   8.3716
  1.778   8.3640
  1.776   8.3347
  1.774   8.4480
  1.772   8.3675
  1.770   8.3465
  1.768   8.4387
  1.766   8.3653
  1.764   8.4227
  1.762   8.4251
  1.760   8.4981
  1.758   8.3777
  1.756   8.4539
  1.754   8.5035
  1.752   8.4584
  1.750   8.4753
  1.748   8.4765
  1.746   8.4682
  1.744   8.5596
  1.742   8.5843
  1.740   8.4950
  1.738   8.5531
  1.736   8.5534
  1.734   8.5572
  1.732   8.6366
  1.730   8.5911
  1.728   8.6258
  1.726   8.5945
  1.724   8.6605
  1.722   8.6762
  1.720   8.5902
  1.718   8.6689
  1.716   8.7217
  1.714   8.6905
  1.712   8.6777
  1.710   8.6737
  1.708   8.6519
  1.706   8.7080
  1.704   8.6274
  1.702   8.7052
  1.700   8.8472
  1.698   8.7550
  1.696   8.7714
  1.694   8.7624
  1.692   8.7414
  1.690   8.6973
  1.688   8.7279
  1.686   8.8203
  1.684   8.7939
  1.682   8.8453
  1.680   8.8180
  1.678   8.8192
  1.676   8.8142
  1.674   8.8287
  1.672   8.9138
  1.670   8.8332
  1.668   8.7914
  1.666   8.8927
  1.664   8.8629
  1.662   8.9260
  1.660   8.8892
  1.658   8.8910
  1.656   8.9785
  1.654   8.9965
  1.652   8.9959
  1.650   9.0845
  1.648   9.0860
  1.646   8.9996
  1.644   9.0582
  1.642   9.1948
  1.640   9.1087
  1.638   9.1249
  1.636   9.1765
  1.634   9.1505
  1.632   9.1863
  1.630   9.2140
  1.628   9.2827
  1.626   9.2467
  1.624   9.2469
  1.622   9.2695
  1.620   9.3375
  1.618   9.3456
  1.616   9.3859
  1.614   9.3509
  1.612   9.3254
  1.610   9.3851
  1.608   9.4269
  1.606   9.4630
  1.604   9.4721
  1.602   9.4967
  1.600   9.4837
  1.598   9.4825
  1.596   9.5633
  1.594   9.5770
  1.592   9.5563
  1.590   9.6648
  1.588   9.6777
  1.586   9.5924
  1.584   9.5878
  1.582   9.6862
  1.580   9.7018
  1.578   9.6803
  1.576   9.6024
  1.574   9.6161
  1.572   9.6647
  1.570   9.6771
  1.568   9.6471
  1.566   9.6332
  1.564   9.6707
  1.562   9.6357
  1.560   9.6195
  1.558   9.6143
  1.556   9.5697
  1.554   9.5334
  1.552   9.4929
  1.550   9.3940
  1.548   9.4057
  1.546   9.4231
  1.544   9.3418
  1.542   9.3494
  1.540   9.3759
  1.538   9.3276
  1.536   9.2418
  1.534   9.2454
  1.532   9.3084
  1.530   9.2466
  1.528   9.1881
  1.526   9.1420
  1.524   9.1655
  1.522   9.1857
  1.520   9.0604
  1.518   9.0462
  1.516   8.9887
  1.514   8.9287
  1.512   8.9436
  1.510   8.8456
  1.508   8.8205
  1.506   8.7487
  1.504   8.7033
  1.502   8.7544
  1.500   8.6664
  1.498   8.6137
  1.496   8.6154
  1.494   8.6072
  1.492   8.4753
  1.490   8.4372
  1.488   8.4346
  1.486   8.3625
  1.484   8.3112
  1.482   8.2327
  1.480   8.1804
  1.478   8.1777
  1.476   8.0713
  1.474   8.1079
  1.472   8.0863
  1.470   8.1377
  1.468   8.0791
  1.466   8.0798
  1.464   8.2060
  1.462   8.2249
  1.460   8.3270
  1.458   8.3301
  1.456   8.3865
  1.454   8.5195
  1.452   8.5307
  1.450   8.5155
  1.448   8.5479
  1.446   8.5083
  1.444   8.4691
  1.442   8.3410
  1.440   8.2392
  1.438   8.1421
  1.436   8.0323
  1.434   8.0598
  1.432   8.2688
  1.430   8.3245
  1.428   8.6534
  1.426   8.9581
  1.424   9.3314
  1.422   9.7397
  1.420  10.2435
  1.418  10.6673
  1.416  11.0091
  1.414  11.5606
  1.412  11.9971
  1.410  12.5241
  1.408  13.0154
  1.406  13.4764
  1.404  13.9423
  1.402  14.2690
  1.400  14.6409
  1.398  15.0244
  1.396  15.5244
  1.394  15.9375
  1.392  16.3882
  1.390  16.7830
  1.388  17.0815
  1.386  17.2733
  1.384  17.4464
  1.382  17.7095
  1.380  17.9113
  1.378  18.2188
  1.376  18.3302
  1.374  18.4502
  1.372  18.5193
  1.370  18.5683
  1.368  18.7124
  1.366  18.8420
  1.364  18.8769
  1.362  18.9050
  1.360  19.0554
  1.358  19.1244
  1.356  19.2046
  1.354  19.2953
  1.352  19.2982
  1.350  19.4157
  1.348  19.6194
  1.346  19.6820
  1.344  19.8726
  1.342  19.9727
  1.340  20.2594
  1.338  20.3296
  1.336  20.6768
  1.334  20.8619
  1.332  21.0853
  1.330  21.3608
  1.328  21.5595
  1.326  21.7154
  1.324  21.9598
  1.322  22.1486
  1.320  22.3861
  1.318  22.5717
  1.316  22.8142
  1.314  22.9277
  1.312  23.1894
  1.310  23.2434
  1.308  23.4873
  1.306  23.5473
  1.304  23.7246
  1.302  23.8207
  1.300  23.8968
  1.298  23.9936
  1.296  24.0665
  1.294  24.0931
  1.292  24.1948
  1.290  24.1650
  1.288  24.1607
  1.286  24.2328
  1.284  24.1945
  1.282  24.2082
  1.280  24.2331
  1.278  24.1390
  1.276  24.1966
  1.274  24.1391
  1.272  24.1740
  1.270  24.0354
  1.268  24.1959
  1.266  24.1006
  1.264  23.9842
  1.262  24.0182
  1.260  23.9235
  1.258  23.9620
  1.256  23.9020
  1.254  23.8847
  1.252  23.7658
  1.250  23.8594
  1.248  23.9660
  1.246  23.8005
  1.244  23.9415
  1.242  23.9512
  1.240  23.8960
  1.238  23.8837
  1.236  23.8421
  1.234  23.9157
  1.232  23.8933
  1.230  24.0109
  1.228  24.0508
  1.226  24.0597
  1.224  24.1415
  1.222  24.1766
  1.220  24.1901
  1.218  24.1999
  1.216  24.2309
  1.214  24.2824
  1.212  24.3591
  1.210  24.3609
  1.208  24.4968
  1.206  24.4825
  1.204  24.4572
  1.202  24.6720
  1.200  24.6583
  1.198  24.7613
  1.196  24.7747
  1.194  24.9279
  1.192  25.0348
  1.190  25.1829
  1.188  25.3625
  1.186  25.4537
  1.184  25.7300
  1.182  25.9534
  1.180  26.2684
  1.178  26.5494
  1.176  26.7475
  1.174  26.9856
  1.172  27.2943
  1.170  27.5715
  1.168  27.8768
  1.166  28.0529
  1.164  28.2634
  1.162  28.4651
  1.160  28.7472
  1.158  28.9739
  1.156  29.0281
  1.154  29.1846
  1.152  29.3713
  1.150  29.5396
  1.148  29.6475
  1.146  29.6886
  1.144  29.8760
  1.142  29.9169
  1.140  30.0363
  1.138  30.1032
  1.136  30.0866
  1.134  30.1696
  1.132  30.2641
  1.130  30.2567
  1.128  30.2965
  1.126  30.3554
  1.124  30.3079
  1.122  30.4790
  1.120  30.4848
  1.118  30.4220
  1.116  30.5081
  1.114  30.5318
  1.112  30.5722
  1.110  30.5892
  1.108  30.6728
  1.106  30.6605
  1.104  30.5929
  1.102  30.6635
  1.100  30.7502
  1.098  30.6875
  1.096  30.7404
  1.094  30.7804
  1.092  30.8186
  1.090  30.8378
  1.088  30.8344
  1.086  30.8002
  1.084  30.8238
  1.082  30.8033
  1.080  30.8199
  1.078  30.7975
  1.076  30.8308
  1.074  30.8268
  1.072  30.8658
  1.070  30.8845
  1.068  30.8615
  1.066  30.8635
  1.064  30.8239
  1.062  30.7866
  1.060  30.6337
  1.058  30.6178
  1.056  30.6823
  1.054  30.5976
  1.052  30.5842
  1.050  30.5152
  1.048  30.4730
  1.046  30.4035
  1.044  30.3267
  1.042  30.2993
  1.040  30.2531
  1.038  30.1209
  1.036  30.0238
  1.034  29.9748
  1.032  29.9240
  1.030  29.8755
  1.028  29.7051
  1.026  29.6514
  1.024  29.6387
  1.022  29.5849
  1.020  29.4729
  1.018  29.3780
  1.016  29.2953
  1.014  29.2619
  1.012  29.1907
  1.010  29.1494
  1.008  29.0391
  1.006  29.0260
  1.004  28.9863
  1.002  28.9520
  1.000  28.8982
  0.998  28.7709
  0.996  28.6887
  0.994  28.6623
  0.992  28.5054
  0.990  28.4030
  0.988  28.2728
  0.986  28.0644
  0.984  27.8213
  0.982  27.7548
  0.980  27.8002
  0.978  27.8982
  0.976  28.1943
  0.974  28.5153
  0.972  28.8195
  0.970  29.0955
  0.968  29.3697
  0.966  29.6404
  0.964  29.8703
  0.962  30.0970
  0.960  30.3246
  0.958  30.4510
  0.956  30.5985
  0.954  30.7893
  0.952  30.8581
  0.950  30.8745
  0.948  30.9817
  0.946  31.0603
  0.944  31.1535
  0.942  31.2276
  0.940  31.3003
  0.938  31.3325
  0.936  31.3383
  0.934  31.3377
  0.932  31.3618
  0.930  31.4092
  0.928  31.4505
  0.926  31.5016
  0.924  31.5839
  0.922  31.6519
  0.920  31.6257
  0.918  31.6410
  0.916  31.6811
  0.914  31.6847
  0.912  31.6777
  0.910  31.6807
  0.908  31.6747
  0.906  31.6646
  0.904  31.6574
  0.902  31.6598
  0.900  31.7727
  0.898  31.8290
  0.896  31.7884
  0.894  31.8041
  0.892  31.8610
  0.890  31.9170
  0.888  31.9133
  0.886  31.9461
  0.884  31.9231
  0.882  31.9048
  0.880  31.8842
  0.878  31.9554
  0.876  32.0514
  0.874  32.0683
  0.872  31.8581
  0.870  31.9440
  0.868  32.1874
  0.866  32.0336
  0.864  31.8079
  0.862  32.0792
  0.860  32.0315
  0.858  31.7777
  0.856  31.6777
  0.854  31.7033
  0.852  31.6985
  0.850  31.7302
  0.848  31.7568
  0.846  31.7345
  0.844  31.7596
  0.842  31.7678
  0.840  31.7780
  0.838  31.7978
  0.836  31.8135
  0.834  31.8145
  0.832  31.8332
  0.830  31.8528
  0.828  31.8517
  0.826  31.8426
  0.824  31.8440
  0.822  31.8297
  0.820  31.8449
  0.818  31.8496
  0.816  31.8360
  0.814  31.8476
  0.812  31.8617
  0.810  31.8760
  0.808  31.8596
  0.806  31.8697
  0.804  31.8477
  0.802  31.8387
  0.800  31.8391
  0.798  31.8371
  0.796  31.8559
  0.794  31.8542
  0.792  31.8480
  0.790  31.8318
  0.788  31.8185
  0.786  31.8127
  0.784  31.8234
  0.782  31.8255
  0.780  31.8114
  0.778  31.8059
  0.776  31.8116
  0.774  31.8250
  0.772  31.8072
  0.770  31.8140
  0.768  31.8031
  0.766  31.8097
  0.764  31.8055
  0.762  31.7906
  0.760  31.7825
  0.758  31.7670
  0.756  31.7537
  0.754  31.7591
  0.752  31.7825
  0.750  31.8034
  0.748  31.8188
  0.746  31.8321
  0.744  31.8691
  0.742  31.9005
  0.740  31.9329
  0.738  31.9565
  0.736  31.9670
  0.734  31.9953
  0.732  31.9801
  0.730  32.0058
  0.728  32.0200
  0.726  32.0427
  0.724  32.0439
  0.722  32.0468
  0.720  32.0413
  0.718  32.0555
  0.716  32.0717
  0.714  32.0690
  0.712  32.0734
  0.710  32.0785
  0.708  32.0786
  0.706  32.0960
  0.704  32.1097
  0.702  32.1038
  0.700  32.0972
  0.698  32.1094
  0.696  32.1254
  0.694  32.1252
  0.692  32.1191
  0.690  32.1377
  0.688  32.1189
  0.686  32.1546
  0.684  32.1488
  0.682  32.1493
  0.680  32.1504
  0.678  32.1687
  0.676  32.1680
  0.674  32.1767
  0.672  32.1794
  0.670  32.1785
  0.668  32.1762
  0.666  32.1955
  0.664  32.1942
  0.662  32.2044
  0.660  32.2162
  0.658  32.2159
  0.656  32.2115
  0.654  32.2268
  0.652  32.2167
  0.650  32.2104
  0.648  32.2196
  0.646  32.2134
  0.644  32.2306
  0.642  32.2413
  0.640  32.2217
  0.638  32.2328
  0.636  32.2341
  0.634  32.2344
  0.632  32.2551
  0.630  32.2425
  0.628  32.2493
  0.626  32.2441
  0.624  32.2445
  0.622  32.2560
  0.620  32.2558
  0.618  32.2498
  0.616  32.2644
  0.614  32.2665
  0.612  32.2812
  0.610  32.2754
  0.608  32.2984
  0.606  32.2983
  0.604  32.3208
  0.602  32.3029
  0.600  32.3356
  0.598  32.3175
  0.596  32.3177
  0.594  32.3149
  0.592  32.3190
  0.590  32.3225
  0.588  32.3296
  0.586  32.3295
  0.584  32.3298
  0.582  32.3352
  0.580  32.3294
  0.578  32.3251
  0.576  32.3323
  0.574  32.3420
  0.572  32.3379
  0.570  32.3319
  0.568  32.3349
  0.566  32.3432
  0.564  32.3438
  0.562  32.3462
  0.560  32.3327
  0.558  32.3282
  0.556  32.3458
  0.554  32.3346
  0.552  32.3505
  0.550  32.3496
  0.548  32.3310
  0.546  32.3301
  0.544  32.3504
  0.542  32.3465
  0.540  32.3383
  0.538  32.3287
  0.536  32.3369
  0.534  32.3235
  0.532  32.3274
  0.530  32.3263
  0.528  32.3347
  0.526  32.3287
  0.524  32.3305
  0.522  32.3244
  0.520  32.3251
  0.518  32.3315
  0.516  32.3404
  0.514  32.3469
  0.512  32.3462
  0.510  32.3618
  0.508  32.3871
  0.506  32.3828
  0.504  32.3826
  0.502  32.3973
  0.500  32.3922
  0.498  32.3906
  0.496  32.3902
  0.494  32.3862
  0.492  32.3776
  0.490  32.3667
  0.488  32.3568
  0.486  32.3395
  0.484  32.3086
  0.482  32.2738
  0.480  32.2793
  0.478  32.2899
  0.476  32.2897
  0.474  32.2835
  0.472  32.2939
  0.470  32.2841
  0.468  32.2851
  0.466  32.2843
  0.464  32.3092
  0.462  32.3057
  0.460  32.3226
  0.458  32.3149
  0.456  32.3177
  0.454  32.3270
  0.452  32.3235
  0.450  32.3187
  0.448  32.3126
  0.446  32.2846
  0.444  32.2782
  0.442  32.2736
  0.440  32.2645
  0.438  32.2592
  0.436  32.2580
  0.434  32.2668
  0.432  32.2669
  0.430  32.2619
  0.428  32.2670
  0.426  32.2600
  0.424  32.2574
  0.422  32.2477
  0.420  32.2505
  0.418  32.2491
  0.416  32.2606
  0.414  32.2556
  0.412  32.2540
  0.410  32.2476
  0.408  32.2448
  0.406  32.2544
  0.404  32.2522
  0.402  32.2514
  0.400  32.2534
