Name: Altered volcanic tuff
Type: Rock
Class: Igneous
Subclass: Felsic
Particle Size: Whole rock chips
Sample No.: Cup4
Owner: USGS
Wavelength range: 0.40 - 14.05 um
Origin: Cuprite, Nevada

Description: Altered volcanic tuff, white to very lt grey





Measurement: Directional Hemispherical Reflectance
First Column: X
Second Column: Y
X Units: Wavelength (micrometers)
Y Units: Reflectance (percent)
First X Value: 14.05105
Last X Value: 0.40000
Number of X Values: 2756
Additional Information: None

 14.051   4.8925
 14.013   4.5938
 13.975   4.4702
 13.938   4.3260
 13.900   4.1715
 13.863   4.0067
 13.826   3.9140
 13.790   3.7183
 13.753   3.6256
 13.717   3.4711
 13.680   3.5020
 13.644   3.3784
 13.609   3.2960
 13.573   3.2342
 13.538   3.3269
 13.502   3.1827
 13.467   3.1312
 13.432   3.0900
 13.398   3.0797
 13.363   3.0076
 13.329   3.0076
 13.295   2.9973
 13.261   3.0591
 13.227   2.9767
 13.193   3.0385
 13.160   3.0694
 13.126   3.2033
 13.093   3.2651
 13.060   3.2548
 13.027   3.2033
 12.995   3.3372
 12.962   3.3887
 12.930   3.4196
 12.898   3.4505
 12.866   3.5638
 12.834   3.5123
 12.802   3.5123
 12.771   3.5535
 12.739   3.5844
 12.708   3.5741
 12.677   3.6359
 12.646   3.4814
 12.616   3.3681
 12.585   3.2960
 12.554   3.2754
 12.524   3.2033
 12.494   3.1621
 12.464   3.1003
 12.434   3.0694
 12.404   2.9355
 12.375   2.9355
 12.345   2.8737
 12.316   2.7707
 12.287   2.7295
 12.258   2.7501
 12.229   2.6780
 12.200   2.7398
 12.171   2.6780
 12.143   2.7501
 12.115   2.7604
 12.086   2.7913
 12.058   2.7913
 12.030   2.8119
 12.002   2.7192
 11.975   2.8016
 11.947   2.8428
 11.920   2.9252
 11.892   2.9664
 11.865   2.9561
 11.838   2.9561
 11.811   3.0282
 11.784   3.0694
 11.757   3.2033
 11.731   3.2548
 11.704   3.3372
 11.678   3.2857
 11.652   3.3578
 11.626   3.3372
 11.600   3.3990
 11.574   3.5432
 11.548   3.6359
 11.522   3.6050
 11.497   3.6462
 11.471   3.6771
 11.446   3.7801
 11.421   3.7698
 11.396   3.8625
 11.371   3.9655
 11.346   4.0685
 11.321   4.0067
 11.297   4.0376
 11.272   4.1200
 11.248   4.1200
 11.223   4.0376
 11.199   4.1303
 11.175   4.1509
 11.151   4.1612
 11.127   4.1818
 11.103   4.2951
 11.079   4.2642
 11.056   4.3569
 11.032   4.3775
 11.009   4.5217
 10.985   4.6144
 10.962   4.6247
 10.939   4.5526
 10.916   4.6041
 10.893   4.6350
 10.870   4.6453
 10.848   4.5835
 10.825   4.5320
 10.802   4.6144
 10.780   4.7277
 10.758   4.7380
 10.735   4.7998
 10.713   4.7792
 10.691   4.8307
 10.669   4.8822
 10.647   4.9028
 10.625   4.8513
 10.604   4.9337
 10.582   4.9955
 10.560   5.0573
 10.539   5.0779
 10.518   5.1397
 10.496   5.1912
 10.475   5.3251
 10.454   5.2839
 10.433   5.3354
 10.412   5.4487
 10.391   5.5208
 10.370   5.4796
 10.350   5.5105
 10.329   5.5311
 10.309   5.6650
 10.288   5.7268
 10.268   5.8092
 10.247   5.8607
 10.227   5.9946
 10.207   6.1285
 10.187   6.2830
 10.167   6.3860
 10.147   6.4890
 10.127   6.5611
 10.108   6.7465
 10.088   6.7980
 10.068   6.8804
 10.049   7.0143
 10.029   7.1585
 10.010   7.2409
  9.991   7.4057
  9.972   7.5808
  9.952   7.7765
  9.933   7.9207
  9.914   8.1370
  9.895   8.3018
  9.877   8.5181
  9.858   8.6417
  9.839   8.8683
  9.821   9.0743
  9.802   9.2391
  9.783   9.4451
  9.765   9.7438
  9.747  10.1043
  9.728  10.4545
  9.710  10.5987
  9.692  10.5678
  9.674  10.4751
  9.656  10.6296
  9.638  10.8562
  9.620  11.0416
  9.602  11.2064
  9.585  11.5257
  9.567  11.7420
  9.549  11.9995
  9.532  12.2055
  9.514  12.4630
  9.497  12.7102
  9.479  12.8956
  9.462  13.0295
  9.445  13.4106
  9.428  13.7299
  9.411  14.0389
  9.394  14.3376
  9.377  14.6672
  9.360  15.0380
  9.343  15.5633
  9.326  16.0474
  9.309  16.5727
  9.293  17.0671
  9.276  17.5203
  9.259  17.9323
  9.243  18.4473
  9.226  18.8387
  9.210  19.2301
  9.194  19.6318
  9.178  20.1262
  9.161  20.5588
  9.145  21.0017
  9.129  21.4755
  9.113  22.0523
  9.097  22.4643
  9.081  22.8248
  9.065  23.2677
  9.049  23.8136
  9.034  24.2668
  9.018  24.6685
  9.002  24.8848
  8.987  25.1629
  8.971  25.3483
  8.956  25.3689
  8.940  25.2453
  8.925  25.1526
  8.909  24.9672
  8.894  24.7921
  8.879  24.5037
  8.864  24.0505
  8.849  23.7003
  8.834  23.4840
  8.819  23.0617
  8.804  22.7115
  8.789  22.2995
  8.774  21.8463
  8.759  21.3107
  8.744  20.8266
  8.730  20.3734
  8.715  19.9202
  8.700  19.2610
  8.686  18.7048
  8.671  18.2001
  8.657  17.5718
  8.642  17.0671
  8.628  16.7375
  8.614  16.5109
  8.599  16.5933
  8.585  16.7684
  8.571  16.7993
  8.557  16.6242
  8.543  16.3255
  8.529  15.8723
  8.515  15.3882
  8.501  14.8835
  8.487  14.4509
  8.473  14.0286
  8.459  13.7402
  8.445  13.4930
  8.431  13.2355
  8.418  12.9471
  8.404  12.6999
  8.391  12.4630
  8.377  12.2261
  8.363  11.9686
  8.350  11.8244
  8.337  11.7214
  8.323  11.5772
  8.310  11.4227
  8.297  11.2888
  8.283  11.1961
  8.270  11.1858
  8.257  11.0828
  8.244  11.0107
  8.231  10.9695
  8.218  10.9077
  8.205  10.8768
  8.192  10.9489
  8.179  10.9180
  8.166  10.8665
  8.153  10.7635
  8.140  10.7738
  8.128  10.7944
  8.115  10.8459
  8.102  10.7944
  8.090  10.8047
  8.077  10.8974
  8.064  10.9798
  8.052  10.9592
  8.039  11.0519
  8.027  11.0519
  8.015  11.0828
  8.002  11.1549
  7.990  11.1549
  7.978  11.0519
  7.965  10.9798
  7.953  10.9180
  7.941  10.7635
  7.929  10.4545
  7.917  10.0837
  7.905   9.6305
  7.893   9.2082
  7.881   8.7344
  7.869   8.2709
  7.857   7.7662
  7.845   7.1791
  7.833   6.6229
  7.821   6.1697
  7.809   5.6650
  7.798   5.1706
  7.786   4.7380
  7.774   4.4496
  7.763   4.1406
  7.751   3.8419
  7.739   3.5020
  7.728   3.2548
  7.716   3.0282
  7.705   2.8222
  7.694   2.6471
  7.682   2.5235
  7.671   2.3175
  7.659   2.1527
  7.648   2.0188
  7.637   1.9364
  7.626   1.8437
  7.614   1.7613
  7.603   1.6995
  7.592   1.6892
  7.581   1.5553
  7.570   1.4523
  7.559   1.4008
  7.548   1.3802
  7.537   1.3081
  7.526   1.2463
  7.515   1.2154
  7.504   1.1948
  7.493   1.1433
  7.483   1.1639
  7.472   1.1639
  7.461   1.1433
  7.450   1.1124
  7.440   1.1124
  7.429   1.0712
  7.418   1.0918
  7.408   1.0197
  7.397   1.0609
  7.387   1.0712
  7.376   1.0197
  7.366   0.9579
  7.355   0.9785
  7.345   1.0506
  7.334   1.0918
  7.324   1.0300
  7.314   1.0300
  7.303   1.0197
  7.293   1.0300
  7.283   1.0506
  7.273   1.0815
  7.263   1.0403
  7.252   0.9991
  7.242   1.0197
  7.232   1.0712
  7.222   1.0403
  7.212   1.0094
  7.202   0.9682
  7.192   0.9991
  7.182   1.0197
  7.172   1.0300
  7.162   1.0403
  7.152   1.0506
  7.143   1.0197
  7.133   1.0506
  7.123   1.0815
  7.113   1.0197
  7.103   0.9270
  7.094   0.9888
  7.084   1.0712
  7.074   1.1433
  7.065   1.0815
  7.055   1.0300
  7.046   1.0403
  7.036   1.1124
  7.026   1.0712
  7.017   1.0609
  7.007   1.0300
  6.998   1.0300
  6.989   1.0712
  6.979   1.1330
  6.970   1.0712
  6.960   1.1124
  6.951   1.1330
  6.942   1.0918
  6.932   1.0918
  6.923   1.1330
  6.914   1.1433
  6.905   1.1845
  6.896   1.1948
  6.886   1.1742
  6.877   1.1742
  6.868   1.2154
  6.859   1.2360
  6.850   1.2257
  6.841   1.2257
  6.832   1.2051
  6.823   1.1433
  6.814   1.1845
  6.805   1.2257
  6.796   1.2772
  6.787   1.3081
  6.778   1.2669
  6.770   1.2463
  6.761   1.2566
  6.752   1.2566
  6.743   1.3493
  6.734   1.3493
  6.726   1.4111
  6.717   1.4008
  6.708   1.4317
  6.700   1.4523
  6.691   1.4317
  6.682   1.4420
  6.674   1.5141
  6.665   1.4935
  6.657   1.5038
  6.648   1.5141
  6.640   1.5862
  6.631   1.6480
  6.623   1.6171
  6.614   1.5244
  6.606   1.5656
  6.597   1.6068
  6.589   1.6686
  6.581   1.6789
  6.572   1.6686
  6.564   1.6789
  6.556   1.6892
  6.547   1.6480
  6.539   1.6377
  6.531   1.6686
  6.523   1.7201
  6.514   1.7613
  6.506   1.8128
  6.498   1.7716
  6.490   1.7201
  6.482   1.7407
  6.474   1.8025
  6.466   1.7819
  6.458   1.7819
  6.450   1.8128
  6.442   1.8231
  6.434   1.7613
  6.426   1.8334
  6.418   1.9158
  6.410   1.9158
  6.402   1.8025
  6.394   1.8128
  6.386   1.8437
  6.378   1.8334
  6.370   1.8128
  6.363   1.7922
  6.355   1.7819
  6.347   1.8128
  6.339   1.7716
  6.332   1.7613
  6.324   1.7716
  6.316   1.7407
  6.308   1.7407
  6.301   1.7304
  6.293   1.7407
  6.286   1.7922
  6.278   1.8334
  6.270   1.8231
  6.263   1.8128
  6.255   1.8231
  6.248   1.7407
  6.240   1.7201
  6.233   1.7098
  6.225   1.6789
  6.218   1.6377
  6.210   1.6068
  6.203   1.6068
  6.195   1.6583
  6.188   1.6377
  6.181   1.6377
  6.173   1.7098
  6.166   1.6789
  6.159   1.6583
  6.151   1.7304
  6.144   1.6789
  6.137   1.6171
  6.130   1.6068
  6.122   1.6480
  6.115   1.6171
  6.108   1.6480
  6.101   1.6377
  6.094   1.5862
  6.086   1.5656
  6.079   1.5759
  6.072   1.6068
  6.065   1.6583
  6.058   1.6274
  6.051   1.6068
  6.044   1.6789
  6.037   1.7407
  6.030   1.7304
  6.023   1.6789
  6.016   1.6686
  6.009   1.6789
  6.002   1.6789
  5.995   1.7098
  5.988   1.7304
  5.981   1.7098
  5.974   1.6789
  5.967   1.7407
  5.960   1.8128
  5.954   1.8849
  5.947   1.8643
  5.940   1.8540
  5.933   1.9055
  5.926   1.9364
  5.920   1.9261
  5.913   1.9158
  5.906   1.8952
  5.899   1.9776
  5.893   2.0909
  5.886   2.0188
  5.879   1.9776
  5.873   2.0497
  5.866   2.0703
  5.859   2.1012
  5.853   2.0600
  5.846   2.1012
  5.840   2.1939
  5.833   2.2557
  5.827   2.2763
  5.820   2.2866
  5.813   2.2248
  5.807   2.2145
  5.800   2.2454
  5.794   2.2866
  5.788   2.2660
  5.781   2.2454
  5.775   2.2042
  5.768   2.2557
  5.762   2.3381
  5.755   2.3175
  5.749   2.3072
  5.743   2.3175
  5.736   2.2660
  5.730   2.3381
  5.724   2.4102
  5.717   2.4308
  5.711   2.4205
  5.705   2.4926
  5.698   2.5338
  5.692   2.5029
  5.686   2.5132
  5.680   2.5544
  5.674   2.5750
  5.667   2.5750
  5.661   2.5750
  5.655   2.5956
  5.649   2.6059
  5.643   2.6162
  5.637   2.6162
  5.630   2.6368
  5.624   2.6265
  5.618   2.6368
  5.612   2.6677
  5.606   2.6986
  5.600   2.6986
  5.594   2.6986
  5.588   2.6677
  5.582   2.6471
  5.576   2.6368
  5.570   2.6574
  5.564   2.6574
  5.558   2.6677
  5.552   2.6368
  5.546   2.6471
  5.540   2.6883
  5.534   2.7192
  5.528   2.7398
  5.523   2.7089
  5.517   2.6986
  5.511   2.7295
  5.505   2.7398
  5.499   2.7501
  5.493   2.7604
  5.487   2.7398
  5.482   2.7089
  5.476   2.7501
  5.470   2.8222
  5.464   2.8119
  5.459   2.7707
  5.453   2.6883
  5.447   2.7192
  5.441   2.7707
  5.436   2.7501
  5.430   2.6986
  5.424   2.7089
  5.419   2.7810
  5.413   2.7501
  5.407   2.6883
  5.402   2.6986
  5.396   2.7501
  5.390   2.7295
  5.385   2.6677
  5.379   2.6471
  5.374   2.6265
  5.368   2.5956
  5.363   2.6059
  5.357   2.6265
  5.352   2.6059
  5.346   2.5544
  5.341   2.5441
  5.335   2.5441
  5.330   2.5750
  5.324   2.5853
  5.319   2.5647
  5.313   2.5647
  5.308   2.6883
  5.302   2.7089
  5.297   2.6677
  5.291   2.6780
  5.286   2.6265
  5.281   2.6368
  5.275   2.6677
  5.270   2.7295
  5.265   2.7913
  5.259   2.8222
  5.254   2.8119
  5.249   2.8428
  5.243   2.8531
  5.238   2.8531
  5.233   2.8840
  5.227   2.9458
  5.222   2.9973
  5.217   3.0076
  5.212   3.0282
  5.206   3.0694
  5.201   3.1209
  5.196   3.1621
  5.191   3.1518
  5.186   3.1621
  5.180   3.2239
  5.175   3.2960
  5.170   3.3166
  5.165   3.2960
  5.160   3.2754
  5.155   3.3269
  5.150   3.3166
  5.145   3.3269
  5.139   3.3681
  5.134   3.3784
  5.129   3.3269
  5.124   3.3269
  5.119   3.3578
  5.114   3.3990
  5.109   3.3681
  5.104   3.3475
  5.099   3.3990
  5.094   3.4196
  5.089   3.3681
  5.084   3.3372
  5.079   3.3475
  5.074   3.3990
  5.069   3.4093
  5.064   3.3578
  5.059   3.2754
  5.054   3.2651
  5.049   3.3269
  5.044   3.3578
  5.040   3.4093
  5.035   3.4196
  5.030   3.3166
  5.025   3.3063
  5.020   3.3681
  5.015   3.3990
  5.010   3.3578
  5.005   3.3578
  5.001   3.3784
  4.996   3.3784
  4.991   3.3681
  4.986   3.3784
  4.981   3.4196
  4.977   3.4505
  4.972   3.4299
  4.967   3.4608
  4.962   3.5226
  4.958   3.5123
  4.953   3.4711
  4.948   3.4505
  4.943   3.5226
  4.939   3.5432
  4.934   3.5329
  4.929   3.5844
  4.925   3.6462
  4.920   3.6668
  4.915   3.6771
  4.911   3.7595
  4.906   3.8213
  4.901   3.8007
  4.897   3.8213
  4.892   3.8831
  4.888   3.9758
  4.883   3.9861
  4.878   4.0376
  4.874   4.0994
  4.869   4.1303
  4.865   4.2127
  4.860   4.2642
  4.856   4.2539
  4.851   4.1921
  4.846   4.2024
  4.842   4.3054
  4.837   4.3878
  4.833   4.4187
  4.828   4.4599
  4.824   4.5629
  4.819   4.6968
  4.815   4.7174
  4.810   4.7071
  4.806   4.7277
  4.802   4.7998
  4.797   4.8101
  4.793   4.7277
  4.788   4.7380
  4.784   4.7895
  4.779   4.7380
  4.775   4.7277
  4.771   4.6556
  4.766   4.5629
  4.762   4.5011
  4.758   4.4084
  4.753   4.3260
  4.749   4.2745
  4.744   4.2642
  4.740   4.2436
  4.736   4.2127
  4.731   4.1612
  4.727   4.0891
  4.723   4.0685
  4.719   4.0376
  4.714   4.0788
  4.710   4.1612
  4.706   4.0994
  4.701   4.0994
  4.697   4.1818
  4.693   4.1818
  4.689   4.1303
  4.684   4.0994
  4.680   4.1612
  4.676   4.2230
  4.672   4.2230
  4.668   4.2127
  4.663   4.2127
  4.659   4.2024
  4.655   4.2642
  4.651   4.3466
  4.647   4.3157
  4.643   4.2436
  4.638   4.2024
  4.634   4.2127
  4.630   4.2539
  4.626   4.2127
  4.622   4.1509
  4.618   4.0994
  4.614   4.1303
  4.610   4.1509
  4.605   4.1612
  4.601   4.1612
  4.597   4.1509
  4.593   4.2127
  4.589   4.2024
  4.585   4.1921
  4.581   4.1921
  4.577   4.1303
  4.573   4.0994
  4.569   4.1612
  4.565   4.2333
  4.561   4.2230
  4.557   4.2024
  4.553   4.2745
  4.549   4.3054
  4.545   4.2539
  4.541   4.2436
  4.537   4.2642
  4.533   4.2848
  4.529   4.3157
  4.525   4.3363
  4.521   4.3569
  4.517   4.4290
  4.513   4.3878
  4.509   4.3569
  4.505   4.3981
  4.502   4.4187
  4.498   4.3569
  4.494   4.3260
  4.490   4.3672
  4.486   4.3260
  4.482   4.3672
  4.478   4.4393
  4.474   4.4393
  4.470   4.4187
  4.467   4.4496
  4.463   4.4599
  4.459   4.3878
  4.455   4.3775
  4.451   4.4599
  4.447   4.5423
  4.444   4.5629
  4.440   4.6041
  4.436   4.5629
  4.432   4.5629
  4.428   4.5629
  4.425   4.5938
  4.421   4.6762
  4.417   4.6968
  4.413   4.5629
  4.410   4.4908
  4.406   4.6350
  4.402   4.7071
  4.398   4.6659
  4.395   4.6556
  4.391   4.6453
  4.387   4.5732
  4.384   4.5423
  4.380   4.6350
  4.376   4.6865
  4.372   4.6968
  4.369   4.6659
  4.365   4.6659
  4.361   4.6350
  4.358   4.6453
  4.354   4.6865
  4.350   4.6556
  4.347   4.6350
  4.343   4.6968
  4.340   4.7689
  4.336   4.7689
  4.332   4.8204
  4.329   4.9028
  4.325   4.9234
  4.321   4.9440
  4.318   4.9955
  4.314   5.1500
  4.311   5.2324
  4.307   5.2324
  4.304   5.2427
  4.300   5.2839
  4.296   5.3560
  4.293   5.5002
  4.289   5.6032
  4.286   5.6444
  4.282   5.5517
  4.279   5.4899
  4.275   5.5002
  4.272   5.5208
  4.268   5.5620
  4.265   5.6856
  4.261   5.7165
  4.258   5.7268
  4.254   5.7474
  4.251   5.7886
  4.247   5.8710
  4.244   5.9534
  4.240   6.0358
  4.237   6.1079
  4.233   6.0873
  4.230   6.1182
  4.226   6.2212
  4.223   6.2830
  4.219   6.3345
  4.216   6.3551
  4.213   6.3551
  4.209   6.3860
  4.206   6.4272
  4.202   6.4581
  4.199   6.3963
  4.196   6.3654
  4.192   6.3860
  4.189   6.3345
  4.185   6.4066
  4.182   6.5920
  4.179   6.5714
  4.175   6.5096
  4.172   6.5302
  4.169   6.5714
  4.165   6.5920
  4.162   6.5096
  4.159   6.4787
  4.155   6.5714
  4.152   6.5920
  4.149   6.6332
  4.145   6.5920
  4.142   6.5817
  4.139   6.5817
  4.135   6.6332
  4.132   6.6229
  4.129   6.5405
  4.126   6.5920
  4.122   6.6229
  4.119   6.6023
  4.116   6.6847
  4.112   6.8598
  4.109   6.9319
  4.106   6.8598
  4.103   6.7774
  4.099   6.7774
  4.096   6.7774
  4.093   6.8804
  4.090   6.9113
  4.086   6.8083
  4.083   6.9216
  4.080   7.0246
  4.077   7.0555
  4.074   7.0761
  4.070   7.0143
  4.067   7.0658
  4.064   7.1379
  4.061   7.1997
  4.058   7.2100
  4.055   7.0864
  4.051   7.1173
  4.048   7.2203
  4.045   7.2409
  4.042   7.2203
  4.039   7.2615
  4.036   7.3233
  4.032   7.3233
  4.029   7.2718
  4.026   7.2306
  4.023   7.2306
  4.020   7.2615
  4.017   7.2718
  4.014   7.2924
  4.011   7.3130
  4.008   7.2821
  4.004   7.3233
  4.001   7.2615
  3.998   7.1894
  3.995   7.2924
  3.992   7.3233
  3.989   7.2924
  3.986   7.2306
  3.983   7.2718
  3.980   7.2409
  3.977   7.1791
  3.974   7.2306
  3.971   7.2821
  3.968   7.2615
  3.965   7.3027
  3.962   7.3439
  3.959   7.2924
  3.956   7.2821
  3.953   7.4160
  3.950   7.4984
  3.947   7.4881
  3.944   7.5705
  3.941   7.5499
  3.938   7.4160
  3.935   7.4057
  3.932   7.4469
  3.929   7.5087
  3.926   7.5602
  3.923   7.5190
  3.920   7.4984
  3.917   7.6014
  3.914   7.6838
  3.911   7.7147
  3.908   7.6426
  3.905   7.5808
  3.902   7.5396
  3.899   7.5499
  3.896   7.4572
  3.893   7.4572
  3.890   7.4572
  3.887   7.4984
  3.884   7.6014
  3.882   7.6117
  3.879   7.4778
  3.876   7.3851
  3.873   7.3336
  3.870   7.3542
  3.867   7.3954
  3.864   7.4675
  3.861   7.4778
  3.858   7.4572
  3.856   7.4984
  3.853   7.5499
  3.850   7.5705
  3.847   7.6838
  3.844   7.6426
  3.841   7.5705
  3.838   7.5602
  3.836   7.5705
  3.833   7.5499
  3.830   7.5190
  3.827   7.5705
  3.824   7.6014
  3.822   7.5396
  3.819   7.4984
  3.816   7.5087
  3.813   7.5705
  3.810   7.5087
  3.807   7.4366
  3.805   7.3954
  3.802   7.4675
  3.799   7.4881
  3.796   7.5190
  3.794   7.5293
  3.791   7.4469
  3.788   7.4675
  3.785   7.5087
  3.782   7.4984
  3.780   7.4778
  3.777   7.4263
  3.774   7.3748
  3.771   7.3748
  3.769   7.3233
  3.766   7.2924
  3.763   7.2512
  3.761   7.0967
  3.758   7.1688
  3.755   7.2512
  3.752   7.1894
  3.750   7.1688
  3.747   7.2306
  3.744   7.1894
  3.742   7.1276
  3.739   7.1276
  3.736   7.1276
  3.733   7.1482
  3.731   7.1379
  3.728   6.9422
  3.725   6.8804
  3.723   6.9319
  3.720   6.9113
  3.717   6.8083
  3.715   6.7877
  3.712   6.7980
  3.709   6.8083
  3.707   6.8495
  3.704   6.8289
  3.702   6.7877
  3.699   6.7465
  3.696   6.6847
  3.694   6.6023
  3.691   6.6126
  3.688   6.7053
  3.686   6.6847
  3.683   6.6023
  3.680   6.5199
  3.678   6.4890
  3.675   6.4684
  3.673   6.4581
  3.670   6.4272
  3.667   6.4375
  3.665   6.3757
  3.662   6.3242
  3.660   6.3448
  3.657   6.3860
  3.655   6.3036
  3.652   6.1800
  3.649   6.0976
  3.647   6.0976
  3.644   6.2521
  3.642   6.3242
  3.639   6.2727
  3.637   6.2727
  3.634   6.2212
  3.632   6.1182
  3.629   6.0770
  3.626   6.0461
  3.624   6.0049
  3.621   5.9843
  3.619   6.0049
  3.616   6.0255
  3.614   5.9019
  3.611   5.7989
  3.609   5.7783
  3.606   5.7783
  3.604   5.7165
  3.601   5.7268
  3.599   5.7268
  3.596   5.6856
  3.594   5.6238
  3.591   5.6135
  3.589   5.6341
  3.586   5.7165
  3.584   5.6753
  3.581   5.5929
  3.579   5.5311
  3.576   5.5002
  3.574   5.5105
  3.571   5.4590
  3.569   5.4796
  3.567   5.5414
  3.564   5.4075
  3.562   5.3148
  3.559   5.3560
  3.557   5.3457
  3.554   5.3354
  3.552   5.3354
  3.549   5.2633
  3.547   5.2427
  3.545   5.2015
  3.542   5.1500
  3.540   5.1397
  3.537   5.1500
  3.535   5.2118
  3.533   5.1706
  3.530   5.1191
  3.528   5.0882
  3.525   4.9234
  3.523   4.8307
  3.521   4.8513
  3.518   4.7998
  3.516   4.7586
  3.513   4.6350
  3.511   4.5732
  3.509   4.5938
  3.506   4.5011
  3.504   4.4805
  3.502   4.5011
  3.499   4.5011
  3.497   4.5423
  3.494   4.6041
  3.492   4.5011
  3.490   4.4187
  3.487   4.5011
  3.485   4.5011
  3.483   4.3466
  3.480   4.3466
  3.478   4.4599
  3.476   4.4187
  3.473   4.3981
  3.471   4.4599
  3.469   4.3466
  3.466   4.2539
  3.464   4.2951
  3.462   4.3466
  3.460   4.3054
  3.457   4.3157
  3.455   4.2539
  3.453   4.1818
  3.450   4.0891
  3.448   3.9964
  3.446   4.0067
  3.443   4.0376
  3.441   4.0994
  3.439   4.1406
  3.437   4.0273
  3.434   3.9964
  3.432   3.9243
  3.430   3.8007
  3.428   3.6977
  3.425   3.7080
  3.423   3.7183
  3.421   3.8213
  3.418   3.8728
  3.416   3.8213
  3.414   3.8522
  3.412   3.8213
  3.409   3.7698
  3.407   3.7698
  3.405   3.6771
  3.403   3.6565
  3.401   3.6977
  3.398   3.7080
  3.396   3.8110
  3.394   3.9037
  3.392   3.8110
  3.389   3.8316
  3.387   3.8522
  3.385   3.8007
  3.383   3.7595
  3.381   3.7698
  3.378   3.8110
  3.376   3.8934
  3.374   3.8007
  3.372   3.7904
  3.370   3.8213
  3.367   3.8007
  3.365   3.7801
  3.363   3.8110
  3.361   3.8110
  3.359   3.8625
  3.357   3.8625
  3.354   3.8831
  3.352   3.8728
  3.350   3.8522
  3.348   3.7801
  3.346   3.7595
  3.344   3.8007
  3.341   3.8522
  3.339   3.9140
  3.337   3.9552
  3.335   3.8522
  3.333   3.7801
  3.331   3.7595
  3.329   3.7698
  3.326   3.8213
  3.324   3.8934
  3.322   3.8625
  3.320   3.7904
  3.318   3.7904
  3.316   3.7698
  3.314   3.7286
  3.312   3.7080
  3.309   3.6462
  3.307   3.6256
  3.305   3.6668
  3.303   3.7595
  3.301   3.7286
  3.299   3.7595
  3.297   3.7492
  3.295   3.6256
  3.293   3.5226
  3.291   3.5947
  3.288   3.6256
  3.286   3.5226
  3.284   3.5432
  3.282   3.6153
  3.280   3.5535
  3.278   3.5638
  3.276   3.6153
  3.274   3.6256
  3.272   3.5844
  3.270   3.6256
  3.268   3.5226
  3.266   3.3475
  3.264   3.4093
  3.262   3.4402
  3.259   3.4814
  3.257   3.6153
  3.255   3.4505
  3.253   3.4093
  3.251   3.5123
  3.249   3.4196
  3.247   3.3166
  3.245   3.3887
  3.243   3.4711
  3.241   3.5226
  3.239   3.4505
  3.237   3.4196
  3.235   3.4711
  3.233   3.5329
  3.231   3.5226
  3.229   3.4093
  3.227   3.4093
  3.225   3.4711
  3.223   3.4711
  3.221   3.3990
  3.219   3.3063
  3.217   3.2960
  3.215   3.2342
  3.213   3.2136
  3.211   3.2445
  3.209   3.2857
  3.207   3.3578
  3.205   3.3887
  3.203   3.2857
  3.201   3.3372
  3.199   3.2754
  3.197   3.2342
  3.195   3.1930
  3.193   3.1621
  3.191   3.1518
  3.189   3.3063
  3.187   3.2960
  3.185   3.2548
  3.183   3.2548
  3.182   3.1312
  3.180   3.1415
  3.178   3.3269
  3.176   3.1930
  3.174   3.0900
  3.172   3.0076
  3.170   2.9252
  3.168   3.0694
  3.166   3.2239
  3.164   3.1930
  3.162   3.1209
  3.160   3.0694
  3.158   3.0385
  3.156   3.0385
  3.154   2.9767
  3.152   2.8943
  3.151   2.9767
  3.149   3.0488
  3.147   3.1209
  3.145   3.0385
  3.143   3.0282
  3.141   3.0179
  3.139   2.9355
  3.137   2.9046
  3.135   2.9561
  3.133   2.9252
  3.132   2.8943
  3.130   2.9561
  3.128   2.9252
  3.126   2.8428
  3.124   2.8840
  3.122   2.8119
  3.120   2.8531
  3.118   2.8428
  3.117   2.8222
  3.115   2.8325
  3.113   2.9458
  3.111   2.8428
  3.109   2.7398
  3.107   2.7913
  3.105   2.8222
  3.103   2.7810
  3.102   2.8016
  3.100   2.7707
  3.098   2.7810
  3.096   2.6986
  3.094   2.7398
  3.092   2.8222
  3.091   2.8428
  3.089   2.7501
  3.087   2.7192
  3.085   2.7192
  3.083   2.7913
  3.081   2.7810
  3.079   2.7913
  3.078   2.7501
  3.076   2.6162
  3.074   2.4926
  3.072   2.6265
  3.070   2.7810
  3.069   2.7913
  3.067   2.7913
  3.065   2.8325
  3.063   2.7089
  3.061   2.6574
  3.060   2.6677
  3.058   2.6059
  3.056   2.5956
  3.054   2.7089
  3.052   2.5853
  3.051   2.5647
  3.049   2.6677
  3.047   2.7913
  3.045   2.7295
  3.043   2.6368
  3.042   2.5647
  3.040   2.5441
  3.038   2.6162
  3.036   2.7192
  3.034   2.6368
  3.033   2.5132
  3.031   2.5235
  3.029   2.7089
  3.027   2.6986
  3.026   2.6471
  3.024   2.5544
  3.022   2.6162
  3.020   2.6059
  3.019   2.6471
  3.017   2.6368
  3.015   2.5441
  3.013   2.7089
  3.012   2.8119
  3.010   2.7913
  3.008   2.8428
  3.006   2.5853
  3.005   2.4823
  3.003   2.5235
  3.001   2.5544
  2.999   2.5956
  2.998   2.5853
  2.996   2.4205
  2.994   2.4308
  2.992   2.6677
  2.991   2.7501
  2.989   2.5544
  2.987   2.3793
  2.986   2.2969
  2.984   2.4823
  2.982   2.7501
  2.980   2.7913
  2.979   2.6368
  2.977   2.6059
  2.975   2.7295
  2.974   2.7501
  2.972   2.5750
  2.970   2.5338
  2.968   2.5956
  2.967   2.6265
  2.965   2.5956
  2.963   2.5544
  2.962   2.3896
  2.960   2.5441
  2.958   2.7398
  2.957   2.7810
  2.955   2.6471
  2.953   2.5647
  2.952   2.3175
  2.950   2.3381
  2.948   2.3690
  2.947   2.5235
  2.945   2.5647
  2.943   2.6162
  2.942   2.5441
  2.940   2.4823
  2.938   2.3690
  2.937   2.4411
  2.935   2.5338
  2.933   2.5132
  2.932   2.5544
  2.930   2.6883
  2.928   2.7810
  2.927   2.7913
  2.925   2.7192
  2.923   2.7913
  2.922   2.7192
  2.920   2.6059
  2.918   2.5441
  2.917   2.5029
  2.915   2.5132
  2.913   2.5235
  2.912   2.6677
  2.910   2.6677
  2.909   2.4926
  2.907   2.4411
  2.905   2.3999
  2.904   2.4617
  2.902   2.4617
  2.900   2.5647
  2.899   2.7192
  2.897   2.7398
  2.896   2.7501
  2.894   2.9252
  2.892   2.8119
  2.891   2.7501
  2.889   2.7810
  2.887   2.8119
  2.886   2.6780
  2.884   2.6471
  2.883   2.6883
  2.881   2.7604
  2.879   2.8325
  2.878   2.9046
  2.876   3.0797
  2.875   3.2651
  2.873   3.4299
  2.871   3.6977
  2.870   3.8728
  2.868   4.1509
  2.867   4.1612
  2.865   4.1200
  2.864   4.0994
  2.862   4.0067
  2.860   3.4093
  2.859   2.8737
  2.857   2.6780
  2.856   2.6368
  2.854   2.5853
  2.853   2.6574
  2.851   2.6986
  2.849   2.7913
  2.848   2.8222
  2.846   3.0179
  2.845   2.9664
  2.843   2.9149
  2.842   2.9973
  2.840   2.8428
  2.838   2.5544
  2.837   2.4514
  2.835   2.4411
  2.834   2.5544
  2.832   2.4720
  2.831   2.4308
  2.829   2.2145
  2.828   2.1527
  2.826   2.1321
  2.825   2.2557
  2.823   2.4720
  2.821   2.5956
  2.820   2.6574
  2.818   2.6059
  2.817   2.5235
  2.815   2.5647
  2.814   2.3793
  2.812   2.4205
  2.811   2.7089
  2.809   2.7398
  2.808   2.5647
  2.806   2.5853
  2.805   2.6368
  2.803   2.5956
  2.802   2.4514
  2.800   2.6574
  2.799   2.6677
  2.797   2.7501
  2.796   2.8222
  2.794   2.8222
  2.793   2.7604
  2.791   2.5647
  2.790   2.6368
  2.788   2.6574
  2.787   2.7398
  2.785   2.7913
  2.784   2.6883
  2.782   2.6574
  2.781   2.7398
  2.779   2.9355
  2.778   2.8428
  2.776   2.6986
  2.775   2.7604
  2.773   2.7913
  2.772   2.8943
  2.770   3.0900
  2.769   2.9355
  2.767   2.7707
  2.766   2.8737
  2.764   3.0385
  2.763   3.0488
  2.761   3.1621
  2.760   3.0591
  2.758   2.8531
  2.757   2.7707
  2.756   3.0179
  2.754   3.1724
  2.753   3.2651
  2.751   3.1930
  2.750   3.0385
  2.748   2.7913
  2.747   2.9355
  2.745   3.2136
  2.744   3.3063
  2.742   3.2136
  2.741   3.0076
  2.740   3.0900
  2.738   3.1930
  2.737   3.1518
  2.735   3.3063
  2.734   3.1518
  2.732   2.8737
  2.731   2.8325
  2.729   3.2136
  2.728   3.3990
  2.727   3.5535
  2.725   3.4505
  2.724   3.2445
  2.722   3.1518
  2.721   3.0591
  2.719   3.0282
  2.718   3.1621
  2.717   3.4196
  2.715   3.8007
  2.714   3.8522
  2.712   3.6874
  2.711   3.8213
  2.709   4.0067
  2.708   3.9964
  2.707   4.1921
  2.705   4.2745
  2.704   4.2024
  2.702   4.2539
  2.701   4.5629
  2.700   5.0161
  2.698   5.3869
  2.697   5.3148
  2.695   5.5723
  2.694   5.8813
  2.693   6.0255
  2.691   6.3345
  2.690   6.6744
  2.688   7.0040
  2.687   7.2512
  2.686   7.4778
  2.684   7.7662
  2.683   8.0649
  2.681   8.3224
  2.680   8.3018
  2.679   8.3945
  2.677   8.5387
  2.676   8.8889
  2.675   9.0743
  2.673   9.3318
  2.672   9.5893
  2.670   9.7026
  2.669   9.9086
  2.668  10.1352
  2.666  10.3515
  2.665  10.5987
  2.664  10.5884
  2.662  10.6811
  2.661  11.0313
  2.659  11.5360
  2.658  11.9892
  2.657  11.9480
  2.655  11.9068
  2.654  11.9171
  2.653  11.8450
  2.651  11.9686
  2.650  12.2982
  2.649  12.7926
  2.647  13.1428
  2.646  13.4621
  2.645  13.6887
  2.643  13.6269
  2.642  13.5548
  2.640  13.5651
  2.639  13.6063
  2.638  13.6372
  2.636  13.5651
  2.635  13.4209
  2.634  13.4312
  2.632  13.6681
  2.631  13.8329
  2.630  13.8844
  2.628  13.7196
  2.627  13.9359
  2.626  14.1625
  2.624  13.9977
  2.623  14.0595
  2.622  13.9771
  2.620  13.9771
  2.619  14.1728
  2.618  14.0286
  2.617  14.2243
  2.615  14.4097
  2.614  14.3170
  2.613  14.1934
  2.611  14.2346
  2.610  14.1934
  2.609  14.0595
  2.607  13.8638
  2.606  13.9874
  2.605  14.1419
  2.603  14.2861
  2.602  14.3479
  2.601  14.5539
  2.599  14.4406
  2.598  14.0595
  2.597  14.0286
  2.596  14.4303
  2.594  14.5848
  2.593  14.5024
  2.592  14.0080
  2.590  13.8123
  2.589  14.0801
  2.588  14.1316
  2.586  13.7505
  2.585  13.7196
  2.584  13.8432
  2.583  14.0286
  2.581  13.9565
  2.580  13.8123
  2.579  13.8638
  2.577  14.1934
  2.576  14.1522
  2.575  14.1625
  2.574  14.2861
  2.572  14.1419
  2.571  14.0183
  2.570  13.9565
  2.569  14.1213
  2.567  14.3170
  2.566  14.2449
  2.565  14.1625
  2.563  14.1007
  2.562  14.2552
  2.561  14.3788
  2.560  14.2140
  2.558  14.0492
  2.557  14.4097
  2.556  14.8938
  2.555  14.8835
  2.553  14.4921
  2.552  14.5230
  2.551  14.5024
  2.550  14.4612
  2.548  14.5642
  2.547  14.5539
  2.546  14.5436
  2.545  14.8217
  2.543  14.7187
  2.542  14.3891
  2.541  14.1110
  2.540  14.1522
  2.538  14.3685
  2.537  14.5745
  2.536  14.5127
  2.535  14.2758
  2.533  14.2964
  2.532  14.2964
  2.531  14.2140
  2.530  14.3582
  2.528  14.1831
  2.527  13.8123
  2.526  13.4518
  2.525  13.3488
  2.524  13.3385
  2.522  13.3591
  2.521  12.9265
  2.520  12.6690
  2.519  12.6587
  2.517  12.5660
  2.516  12.4527
  2.515  12.6381
  2.514  12.6381
  2.513  12.8029
  2.511  12.8956
  2.510  12.8235
  2.509  12.9059
  2.508  13.2355
  2.506  13.4724
  2.505  13.8638
  2.504  14.1625
  2.503  14.2861
  2.502  14.3788
  2.500  14.3891
  2.500  14.3891
  2.496  14.4053
  2.492  14.9107
  2.488  15.4377
  2.484  15.6577
  2.480  15.8687
  2.476  15.7513
  2.472  15.2221
  2.468  15.5567
  2.464  15.8192
  2.460  16.5010
  2.456  16.6395
  2.452  16.6279
  2.448  17.1916
  2.444  16.9019
  2.440  16.3690
  2.436  16.9625
  2.432  17.2421
  2.428  17.5412
  2.424  18.0671
  2.420  18.4823
  2.416  18.9627
  2.412  19.2407
  2.408  19.7750
  2.404  19.9500
  2.400  20.1483
  2.396  20.7391
  2.392  21.4679
  2.388  22.0066
  2.384  23.1324
  2.380  24.0987
  2.376  24.8902
  2.372  25.5646
  2.368  26.3022
  2.364  26.7189
  2.360  26.8205
  2.356  26.9353
  2.352  27.4405
  2.348  27.1300
  2.344  26.5224
  2.340  25.8502
  2.336  25.6305
  2.332  24.7259
  2.328  24.5937
  2.324  24.2644
  2.320  24.2809
  2.316  24.5892
  2.312  25.4008
  2.308  26.1922
  2.304  26.9454
  2.300  27.4503
  2.296  27.5987
  2.292  28.1602
  2.288  28.0840
  2.284  28.0425
  2.280  28.2412
  2.276  27.9901
  2.272  28.0096
  2.268  28.0513
  2.264  28.0734
  2.260  28.0798
  2.256  27.9633
  2.252  27.8512
  2.248  28.0436
  2.244  27.8652
  2.240  27.5350
  2.236  27.2404
  2.232  26.6553
  2.228  25.9643
  2.224  24.9491
  2.220  23.7178
  2.216  22.8732
  2.212  22.5573
  2.208  22.4944
  2.204  22.7411
  2.200  22.9748
  2.196  22.8334
  2.192  22.6570
  2.188  22.3904
  2.184  22.1251
  2.180  21.8716
  2.176  21.8171
  2.172  21.8697
  2.168  21.9735
  2.164  21.9895
  2.160  22.2846
  2.156  22.5989
  2.152  23.0266
  2.148  23.5134
  2.144  24.0109
  2.140  24.5601
  2.136  24.9741
  2.132  25.3644
  2.128  26.0343
  2.124  26.7241
  2.120  27.3362
  2.116  27.9825
  2.112  28.5260
  2.108  28.9780
  2.104  29.4017
  2.100  29.7622
  2.096  30.1534
  2.092  30.4775
  2.088  30.6838
  2.084  30.8100
  2.080  30.9423
  2.076  31.0288
  2.072  31.1026
  2.068  31.1303
  2.064  31.1547
  2.060  31.2345
  2.056  31.3306
  2.052  31.4437
  2.048  31.5429
  2.044  31.5933
  2.040  31.6170
  2.036  31.6353
  2.032  31.6399
  2.028  31.5232
  2.024  31.3884
  2.020  31.2445
  2.016  31.0590
  2.012  30.8868
  2.008  30.8036
  2.004  30.7603
  2.000  30.7166
  1.996  30.6725
  1.992  30.6329
  1.988  30.5425
  1.984  30.4341
  1.980  30.3113
  1.976  30.0782
  1.972  29.8327
  1.968  29.5892
  1.964  29.3551
  1.960  29.1295
  1.956  28.9131
  1.952  28.7157
  1.948  28.5469
  1.944  28.3987
  1.940  28.2776
  1.936  28.0903
  1.932  27.7796
  1.928  27.4684
  1.924  27.1262
  1.920  26.7487
  1.916  26.3574
  1.912  26.0927
  1.908  26.1655
  1.904  26.7549
  1.900  27.9202
  1.896  29.6068
  1.892  31.5983
  1.888  33.6751
  1.884  35.7088
  1.880  37.6257
  1.876  39.3954
  1.872  40.9108
  1.868  42.0461
  1.864  42.8646
  1.860  43.4915
  1.856  43.9871
  1.852  44.3759
  1.848  44.7161
  1.844  44.9315
  1.840  45.0729
  1.836  45.2405
  1.832  45.3752
  1.828  45.4661
  1.824  45.5232
  1.820  45.5855
  1.816  45.5803
  1.812  45.5118
  1.808  45.4397
  1.804  45.2569
  1.800  44.9198
  1.796  44.4184
  1.792  43.7905
  1.788  43.1259
  1.784  42.4586
  1.780  41.7978
  1.776  41.1947
  1.772  40.7613
  1.768  40.5970
  1.764  40.6623
  1.760  40.9406
  1.756  41.3767
  1.752  41.9039
  1.748  42.5092
  1.744  43.2023
  1.740  43.9004
  1.736  44.5722
  1.732  45.1833
  1.728  45.7630
  1.724  46.3212
  1.720  46.7713
  1.716  47.1188
  1.712  47.3506
  1.708  47.5436
  1.704  47.7199
  1.700  47.8507
  1.696  47.9848
  1.692  48.0964
  1.688  48.2050
  1.684  48.3004
  1.680  48.3871
  1.676  48.4805
  1.672  48.5741
  1.668  48.6689
  1.664  48.7338
  1.660  48.7588
  1.656  48.7714
  1.652  48.8074
  1.648  48.8602
  1.644  48.8918
  1.640  48.9095
  1.636  48.8797
  1.632  48.8375
  1.628  48.8374
  1.624  48.8334
  1.620  48.8106
  1.616  48.7454
  1.612  48.7092
  1.608  48.6683
  1.604  48.6504
  1.600  48.6049
  1.596  48.5440
  1.592  48.5400
  1.588  48.4848
  1.584  48.3642
  1.580  48.3371
  1.576  48.3142
  1.572  48.2111
  1.568  48.0966
  1.564  48.0304
  1.560  47.9511
  1.556  47.8270
  1.552  47.6127
  1.548  47.3994
  1.544  47.2848
  1.540  47.1390
  1.536  46.9220
  1.532  46.6799
  1.528  46.4893
  1.524  46.2461
  1.520  45.9760
  1.516  45.6349
  1.512  45.1930
  1.508  44.7449
  1.504  44.1161
  1.500  43.4656
  1.496  42.7803
  1.492  41.8622
  1.488  40.3339
  1.484  38.1070
  1.480  36.3482
  1.476  36.4140
  1.472  37.7769
  1.468  39.0344
  1.464  39.6013
  1.460  39.8891
  1.456  40.1862
  1.452  40.5770
  1.448  40.9192
  1.444  40.9144
  1.440  40.3833
  1.436  39.3299
  1.432  38.1560
  1.428  37.5681
  1.424  38.1566
  1.420  39.2098
  1.416  39.9598
  1.412  40.2858
  1.408  40.6584
  1.404  41.3283
  1.400  42.1666
  1.396  43.1583
  1.392  44.0598
  1.388  45.1813
  1.384  46.5389
  1.380  47.8845
  1.376  49.1659
  1.372  50.2333
  1.368  51.0250
  1.364  51.5647
  1.360  51.8107
  1.356  52.0208
  1.352  52.2531
  1.348  52.5566
  1.344  52.8172
  1.340  53.0564
  1.336  53.3893
  1.332  53.7964
  1.328  54.1510
  1.324  54.5164
  1.320  54.8256
  1.316  55.1024
  1.312  55.2993
  1.308  55.5089
  1.304  55.6550
  1.300  55.7177
  1.296  55.6469
  1.292  55.5811
  1.288  55.4356
  1.284  55.1886
  1.280  54.7772
  1.276  54.3141
  1.272  54.0532
  1.268  53.9023
  1.264  54.0331
  1.260  54.3505
  1.256  54.7001
  1.252  54.7908
  1.248  54.8683
  1.244  54.9389
  1.240  55.0482
  1.236  55.1745
  1.232  55.2603
  1.228  55.3588
  1.224  55.4660
  1.220  55.6236
  1.216  55.6221
  1.212  55.6200
  1.208  55.5685
  1.204  55.5854
  1.200  55.5636
  1.196  55.5428
  1.192  55.5112
  1.188  55.5255
  1.184  55.4848
  1.180  55.4157
  1.176  55.3635
  1.172  55.2999
  1.168  55.2020
  1.164  55.1111
  1.160  54.9766
  1.156  54.8804
  1.152  54.8545
  1.148  54.9246
  1.144  55.1683
  1.140  55.4474
  1.136  55.6054
  1.132  55.7116
  1.128  55.7557
  1.124  55.7525
  1.120  55.7442
  1.116  55.6767
  1.112  55.6459
  1.108  55.6231
  1.104  55.5685
  1.100  55.5489
  1.096  55.4891
  1.092  55.4467
  1.088  55.3944
  1.084  55.3454
  1.080  55.3176
  1.076  55.2274
  1.072  55.1460
  1.068  55.0749
  1.064  55.0370
  1.060  54.9384
  1.056  54.9010
  1.052  54.7896
  1.048  54.6653
  1.044  54.6138
  1.040  54.5609
  1.036  54.4449
  1.032  54.3389
  1.028  54.1705
  1.024  53.9584
  1.020  53.7684
  1.016  53.5171
  1.012  53.3455
  1.008  53.2190
  1.004  53.1003
  1.000  53.0114
  0.996  52.9124
  0.992  52.8709
  0.988  52.8429
  0.984  52.7976
  0.980  52.7415
  0.976  52.7003
  0.972  52.6332
  0.968  52.5404
  0.964  52.4073
  0.960  52.3949
  0.956  52.3662
  0.952  52.3370
  0.948  52.3373
  0.944  52.3787
  0.940  52.4051
  0.936  52.3851
  0.932  52.3441
  0.928  52.2877
  0.924  52.2530
  0.920  52.2439
  0.916  52.3141
  0.912  52.4400
  0.908  52.3715
  0.904  52.3099
  0.900  52.2809
  0.896  52.2228
  0.892  52.1930
  0.888  52.1558
  0.884  52.0245
  0.880  52.0300
  0.876  52.0791
  0.872  51.8924
  0.868  51.7842
  0.864  51.8188
  0.860  51.7933
  0.856  51.8603
  0.852  51.7948
  0.848  51.7210
  0.844  51.8241
  0.840  51.7078
  0.836  51.6334
  0.832  51.5921
  0.828  51.4402
  0.824  51.3794
  0.820  51.3350
  0.816  51.4302
  0.812  51.2476
  0.808  51.2063
  0.804  51.1888
  0.800  51.2011
  0.796  51.0984
  0.792  50.9475
  0.788  50.8348
  0.784  50.7597
  0.780  50.7757
  0.776  50.6789
  0.772  50.6190
  0.768  50.5934
  0.764  50.4930
  0.760  50.3992
  0.756  50.3647
  0.752  50.3153
  0.748  50.2199
  0.744  50.1213
  0.740  50.0499
  0.736  49.9773
  0.732  49.8410
  0.728  49.7414
  0.724  49.6484
  0.720  49.5878
  0.716  49.4976
  0.712  49.3896
  0.708  49.2280
  0.704  49.1395
  0.700  49.0343
  0.696  48.9246
  0.692  48.8078
  0.688  48.6643
  0.684  48.5401
  0.680  48.4209
  0.676  48.3002
  0.672  48.1382
  0.668  47.9659
  0.664  47.8522
  0.660  47.7300
  0.656  47.5807
  0.652  47.4381
  0.648  47.3152
  0.644  47.1982
  0.640  47.0667
  0.636  46.8876
  0.632  46.7433
  0.628  46.5674
  0.624  46.4571
  0.620  46.3143
  0.616  46.1542
  0.612  45.9549
  0.608  45.7209
  0.604  45.5337
  0.600  45.3208
  0.596  45.0508
  0.592  44.7556
  0.588  44.4138
  0.584  44.0624
  0.580  43.6744
  0.576  43.1760
  0.572  42.6506
  0.568  42.1279
  0.564  41.5600
  0.560  40.9308
  0.556  40.3342
  0.552  39.7388
  0.548  39.1960
  0.544  38.6463
  0.540  38.1517
  0.536  37.7012
  0.532  37.3072
  0.528  36.9238
  0.524  36.5909
  0.520  36.2835
  0.516  35.9937
  0.512  35.7218
  0.508  35.4064
  0.504  35.1281
  0.500  34.8642
  0.496  34.5792
  0.492  34.3221
  0.488  34.0643
  0.484  33.8232
  0.480  33.6322
  0.476  33.4487
  0.472  33.2564
  0.468  33.0570
  0.464  32.8398
  0.460  32.6100
  0.456  32.3710
  0.452  32.1009
  0.448  31.7643
  0.444  31.3857
  0.440  31.0129
  0.436  30.6096
  0.432  30.2056
  0.428  29.8880
  0.424  29.5737
  0.420  29.2822
  0.416  29.0025
  0.412  28.7410
  0.408  28.4989
  0.404  28.1738
  0.400  27.8452
