Name:  Limestone CaCO3
Type:  Rock
Class: Sedimentary
Subclass: Limestone  
Particle Size:  Whole rock chips
Sample No.:  ro359
Owner:  Larry Rowan, USGS
Wavelength range:  VNIR SWIR IR
Origin:  Ronda, Spain

Description:  white limestone





Measurement:  Reflectance
First Column:  X
Second Column:  Y
X Units:  Wavelength (micrometers)
Y Units:  Reflectance (percent)
First X Value:  0.4
Last X Value:  14.01309
Number of X Values:  2826
Additional Information:  ls359a.txt

0.4	        .541000
0.401	        .541000
0.402	        .542000
0.403	        .543000
0.404	        .547000
0.405	        .546000
0.406	        .549000
0.407	        .551000
0.408	        .547000
0.409	        .549000
0.41	        .553000
0.411	        .558000
0.412	        .553000
0.413	        .554000
0.414	        .554000
0.415	        .558000
0.416	        .559000
0.417	        .560000
0.418	        .557000
0.419	        .562000
0.42	        .563000
0.421	        .564000
0.422	        .564000
0.423	        .565000
0.424	        .568000
0.425	        .570000
0.426	        .571000
0.427	        .570000
0.428	        .568000
0.429	        .571000
0.43	        .574000
0.431	        .573000
0.432	        .578000
0.433	        .575000
0.434	        .579000
0.435	        .580000
0.436	        .584000
0.437	        .581000
0.438	        .580000
0.439	        .586000
0.44	        .584000
0.441	        .582000
0.442	        .586000
0.443	        .581000
0.444	        .582000
0.445	        .586000
0.446	        .584000
0.447	        .581000
0.448	        .587000
0.449	        .592000
0.45	        .595000
0.451	        .585000
0.452	        .587000
0.453	        .590000
0.454	        .591000
0.455	        .591000
0.456	        .592000
0.457	        .591000
0.458	        .592000
0.459	        .595000
0.46	        .590000
0.461	        .589000
0.462	        .589000
0.463	        .593000
0.464	        .596000
0.465	        .592000
0.466	        .595000
0.467	        .595000
0.468	        .600000
0.469	        .600000
0.47	        .596000
0.471	        .597000
0.472	        .592000
0.473	        .595000
0.474	        .598000
0.475	        .602000
0.476	        .601000
0.477	        .601000
0.478	        .601000
0.479	        .601000
0.48	        .600000
0.481	        .604000
0.482	        .606000
0.483	        .604000
0.484	        .606000
0.485	        .609000
0.486	        .607000
0.487	        .606000
0.488	        .603000
0.489	        .603000
0.49	        .608000
0.491	        .609000
0.492	        .609000
0.493	        .609000
0.494	        .609000
0.495	        .608000
0.496	        .612000
0.497	        .614000
0.498	        .618000
0.499	        .619000
0.5	        .618000
0.501	        .614000
0.502	        .620000
0.503	        .618000
0.504	        .617000
0.505	        .615000
0.506	        .619000
0.507	        .623000
0.508	        .623000
0.509	        .615000
0.51	        .619000
0.511	        .620000
0.512	        .624000
0.513	        .632000
0.514	        .625000
0.515	        .621000
0.516	        .624000
0.517	        .629000
0.518	        .632000
0.519	        .623000
0.52	        .617000
0.521	        .625000
0.522	        .628000
0.523	        .631000
0.524	        .626000
0.525	        .619000
0.526	        .625000
0.527	        .631000
0.528	        .630000
0.529	        .635000
0.53	        .641000
0.531	        .641000
0.532	        .640000
0.533	        .639000
0.534	        .635000
0.535	        .628000
0.536	        .630000
0.537	        .635000
0.538	        .637000
0.539	        .634000
0.54	        .631000
0.541	        .635000
0.542	        .640000
0.543	        .636000
0.544	        .637000
0.545	        .635000
0.546	        .631000
0.547	        .636000
0.548	        .639000
0.549	        .639000
0.55	        .639000
0.551	        .642000
0.552	        .641000
0.553	        .642000
0.554	        .642000
0.555	        .641000
0.556	        .642000
0.557	        .645000
0.558	        .643000
0.559	        .641000
0.56	        .640000
0.561	        .640000
0.562	        .641000
0.563	        .639000
0.564	        .640000
0.565	        .641000
0.566	        .643000
0.567	        .645000
0.568	        .646000
0.569	        .650000
0.57	        .661000
0.571	        .657000
0.572	        .656000
0.573	        .656000
0.574	        .657000
0.575	        .658000
0.576	        .661000
0.577	        .662000
0.578	        .652000
0.579	        .654000
0.58	        .657000
0.581	        .652000
0.582	        .651000
0.583	        .652000
0.584	        .653000
0.585	        .657000
0.586	        .653000
0.587	        .654000
0.588	        .653000
0.589	        .658000
0.59	        .658000
0.591	        .657000
0.592	        .654000
0.593	        .658000
0.594	        .656000
0.595	        .657000
0.596	        .657000
0.597	        .657000
0.598	        .657000
0.599	        .663000
0.6	        .662000
0.601	        .652000
0.602	        .652000
0.603	        .652000
0.604	        .651000
0.605	        .652000
0.606	        .657000
0.607	        .654000
0.608	        .654000
0.609	        .656000
0.61	        .653000
0.611	        .652000
0.612	        .653000
0.613	        .658000
0.614	        .657000
0.615	        .661000
0.616	        .656000
0.617	        .656000
0.618	        .662000
0.619	        .658000
0.62	        .656000
0.621	        .659000
0.622	        .664000
0.623	        .664000
0.624	        .659000
0.625	        .656000
0.626	        .661000
0.627	        .662000
0.628	        .658000
0.629	        .658000
0.63	        .659000
0.631	        .664000
0.632	        .668000
0.633	        .669000
0.634	        .664000
0.635	        .664000
0.636	        .663000
0.637	        .665000
0.638	        .663000
0.639	        .663000
0.64	        .661000
0.641	        .665000
0.642	        .665000
0.643	        .665000
0.644	        .663000
0.645	        .659000
0.646	        .667000
0.647	        .667000
0.648	        .664000
0.649	        .663000
0.65	        .663000
0.651	        .662000
0.652	        .664000
0.653	        .664000
0.654	        .664000
0.655	        .668000
0.656	        .663000
0.657	        .667000
0.658	        .673000
0.659	        .676000
0.66	        .679000
0.661	        .675000
0.662	        .670000
0.663	        .665000
0.664	        .667000
0.665	        .672000
0.666	        .673000
0.667	        .669000
0.668	        .672000
0.669	        .674000
0.67	        .673000
0.671	        .669000
0.672	        .670000
0.673	        .674000
0.674	        .674000
0.675	        .668000
0.676	        .670000
0.677	        .676000
0.678	        .675000
0.679	        .674000
0.68	        .674000
0.681	        .676000
0.682	        .678000
0.683	        .675000
0.684	        .674000
0.685	        .678000
0.686	        .674000
0.687	        .674000
0.688	        .672000
0.689	        .673000
0.69	        .680000
0.691	        .675000
0.692	        .675000
0.693	        .676000
0.694	        .679000
0.695	        .679000
0.696	        .679000
0.697	        .681000
0.698	        .680000
0.699	        .680000
0.7	        .679000
0.701	        .680000
0.702	        .679000
0.703	        .680000
0.704	        .684000
0.705	        .684000
0.706	        .679000
0.707	        .681000
0.708	        .680000
0.709	        .679000
0.71	        .683000
0.711	        .685000
0.712	        .683000
0.713	        .681000
0.714	        .681000
0.715	        .681000
0.716	        .679000
0.717	        .679000
0.718	        .681000
0.719	        .681000
0.72	        .684000
0.721	        .687000
0.722	        .683000
0.723	        .681000
0.724	        .685000
0.725	        .683000
0.726	        .687000
0.727	        .687000
0.728	        .692000
0.729	        .687000
0.73	        .685000
0.731	        .683000
0.732	        .679000
0.733	        .681000
0.734	        .689000
0.735	        .690000
0.736	        .689000
0.737	        .690000
0.738	        .691000
0.739	        .691000
0.74	        .691000
0.741	        .695000
0.742	        .692000
0.743	        .689000
0.744	        .689000
0.745	        .691000
0.746	        .687000
0.747	        .686000
0.748	        .687000
0.749	        .690000
0.75	        .694000
0.751	        .695000
0.752	        .696000
0.753	        .695000
0.754	        .690000
0.755	        .689000
0.756	        .691000
0.757	        .687000
0.758	        .691000
0.759	        .694000
0.76	        .694000
0.761	        .690000
0.762	        .691000
0.763	        .695000
0.764	        .696000
0.765	        .692000
0.766	        .691000
0.767	        .687000
0.768	        .694000
0.769	        .695000
0.77	        .695000
0.771	        .694000
0.772	        .691000
0.773	        .697000
0.774	        .697000
0.775	        .698000
0.776	        .695000
0.777	        .697000
0.778	        .702000
0.779	        .697000
0.78	        .700000
0.781	        .696000
0.782	        .695000
0.783	        .691000
0.784	        .696000
0.785	        .690000
0.786	        .697000
0.787	        .701000
0.788	        .700000
0.789	        .697000
0.79	        .698000
0.791	        .694000
0.792	        .698000
0.793	        .700000
0.794	        .696000
0.795	        .698000
0.796	        .695000
0.797	        .695000
0.798	        .697000
0.799	        .697000
0.8	        .702000
0.804	        .706000
0.808	        .709000
0.812	        .708000
0.816	        .706000
0.82	        .701000
0.824	        .706000
0.828	        .707000
0.832	        .708000
0.836	        .708000
0.84	        .703000
0.844	        .708000
0.848	        .707000
0.852	        .708000
0.856	        .709000
0.86	        .707000
0.864	        .712000
0.868	        .711000
0.872	        .709000
0.876	        .713000
0.88	        .709000
0.884	        .707000
0.888	        .711000
0.892	        .709000
0.896	        .712000
0.9	        .712000
0.904	        .709000
0.908	        .711000
0.912	        .707000
0.916	        .705000
0.92	        .701000
0.924	        .705000
0.928	        .708000
0.932	        .707000
0.936	        .706000
0.94	        .706000
0.944	        .705000
0.948	        .703000
0.952	        .708000
0.956	        .703000
0.96	        .703000
0.964	        .702000
0.968	        .701000
0.972	        .705000
0.976	        .705000
0.98	        .700000
0.984	        .701000
0.988	        .705000
0.992	        .701000
0.996	        .700000
1	        .702000
1.004	        .703000
1.008	        .703000
1.012	        .698000
1.016	        .697000
1.02	        .700000
1.024	        .697000
1.028	        .700000
1.032	        .698000
1.036	        .701000
1.04	        .698000
1.044	        .697000
1.048	        .698000
1.052	        .700000
1.056	        .700000
1.06	        .702000
1.064	        .697000
1.068	        .696000
1.072	        .696000
1.076	        .696000
1.08	        .698000
1.084	        .700000
1.088	        .697000
1.092	        .697000
1.096	        .694000
1.1	        .695000
1.104	        .694000
1.108	        .696000
1.112	        .694000
1.116	        .696000
1.12	        .696000
1.124	        .695000
1.128	        .695000
1.132	        .698000
1.136	        .694000
1.14	        .696000
1.144	        .692000
1.148	        .696000
1.152	        .698000
1.156	        .697000
1.16	        .698000
1.164	        .700000
1.168	        .700000
1.172	        .697000
1.176	        .698000
1.18	        .696000
1.184	        .697000
1.188	        .696000
1.192	        .695000
1.196	        .696000
1.2	        .697000
1.204	        .698000
1.208	        .700000
1.212	        .702000
1.216	        .700000
1.22	        .695000
1.224	        .697000
1.228	        .698000
1.232	        .697000
1.236	        .697000
1.24	        .696000
1.244	        .698000
1.248	        .700000
1.252	        .703000
1.256	        .705000
1.26	        .706000
1.264	        .700000
1.268	        .695000
1.272	        .696000
1.276	        .697000
1.28	        .698000
1.284	        .696000
1.288	        .697000
1.292	        .696000
1.296	        .695000
1.3	        .695000
1.304	        .696000
1.308	        .695000
1.312	        .694000
1.316	        .694000
1.32	        .692000
1.324	        .691000
1.328	        .695000
1.332	        .692000
1.336	        .691000
1.34	        .690000
1.344	        .687000
1.348	        .684000
1.352	        .679000
1.356	        .680000
1.36	        .680000
1.364	        .675000
1.368	        .675000
1.372	        .665000
1.376	        .662000
1.38	        .656000
1.384	        .648000
1.388	        .640000
1.392	        .629000
1.396	        .624000
1.4	        .619000
1.404	        .615000
1.408	        .607000
1.412	        .606000
1.416	        .603000
1.42	        .601000
1.424	        .597000
1.428	        .596000
1.432	        .595000
1.436	        .593000
1.44	        .593000
1.444	        .595000
1.448	        .596000
1.452	        .597000
1.456	        .596000
1.46	        .593000
1.464	        .595000
1.468	        .600000
1.472	        .601000
1.476	        .604000
1.48	        .607000
1.484	        .612000
1.488	        .614000
1.492	        .618000
1.496	        .621000
1.5	        .628000
1.504	        .630000
1.508	        .630000
1.512	        .632000
1.516	        .639000
1.52	        .641000
1.524	        .643000
1.528	        .642000
1.532	        .643000
1.536	        .645000
1.54	        .645000
1.544	        .647000
1.548	        .646000
1.552	        .645000
1.556	        .645000
1.56	        .646000
1.564	        .651000
1.568	        .659000
1.572	        .659000
1.576	        .662000
1.58	        .663000
1.584	        .664000
1.588	        .663000
1.592	        .662000
1.596	        .665000
1.6	        .668000
1.604	        .665000
1.608	        .668000
1.612	        .667000
1.616	        .667000
1.62	        .669000
1.624	        .668000
1.628	        .667000
1.632	        .664000
1.636	        .663000
1.64	        .665000
1.644	        .665000
1.648	        .664000
1.652	        .665000
1.656	        .665000
1.66	        .667000
1.664	        .669000
1.668	        .668000
1.672	        .667000
1.676	        .665000
1.68	        .664000
1.684	        .661000
1.688	        .658000
1.692	        .659000
1.696	        .658000
1.7	        .657000
1.704	        .651000
1.708	        .650000
1.712	        .646000
1.716	        .640000
1.72	        .635000
1.724	        .636000
1.728	        .636000
1.732	        .635000
1.736	        .640000
1.74	        .639000
1.744	        .632000
1.748	        .635000
1.752	        .639000
1.756	        .641000
1.76	        .643000
1.764	        .648000
1.768	        .650000
1.772	        .647000
1.776	        .646000
1.78	        .646000
1.784	        .643000
1.788	        .643000
1.792	        .645000
1.796	        .645000
1.8	        .640000
1.804	        .635000
1.808	        .629000
1.812	        .630000
1.816	        .626000
1.82	        .615000
1.824	        .613000
1.828	        .604000
1.832	        .595000
1.836	        .591000
1.84	        .581000
1.844	        .579000
1.848	        .573000
1.852	        .559000
1.856	        .543000
1.86	        .526000
1.864	        .513000
1.868	        .508000
1.872	        .508000
1.876	        .510000
1.88	        .507000
1.884	        .496000
1.888	        .486000
1.892	        .474000
1.896	        .465000
1.9	        .457000
1.904	        .452000
1.908	        .448000
1.912	        .442000
1.916	        .441000
1.92	        .440000
1.924	        .437000
1.928	        .438000
1.932	        .435000
1.936	        .433000
1.94	        .435000
1.944	        .437000
1.948	        .438000
1.952	        .441000
1.956	        .442000
1.96	        .443000
1.964	        .444000
1.968	        .446000
1.972	        .443000
1.976	        .444000
1.98	        .442000
1.984	        .442000
1.988	        .447000
1.992	        .451000
1.996	        .460000
2	        .474000
2.004	        .484000
2.008	        .493000
2.012	        .501000
2.016	        .507000
2.02	        .514000
2.024	        .519000
2.028	        .521000
2.032	        .526000
2.036	        .531000
2.04	        .538000
2.044	        .548000
2.048	        .546000
2.052	        .548000
2.056	        .548000
2.06	        .549000
2.064	        .552000
2.068	        .552000
2.072	        .554000
2.076	        .556000
2.08	        .553000
2.084	        .557000
2.088	        .556000
2.092	        .553000
2.096	        .552000
2.1	        .551000
2.10043	        .571200
2.10128	        .568000
2.10213	        .569200
2.10298	        .569700
2.10383	        .569800
2.10469	        .574400
2.10554	        .571900
2.1064	        .566300
2.10725	        .566600
2.10811	        .568500
2.10897	        .566200
2.10983	        .565100
2.11068	        .567300
2.11154	        .566200
2.1124	        .563900
2.11327	        .568400
2.11413	        .568500
2.11499	        .568100
2.11585	        .569100
2.11672	        .564300
2.11758	        .564700
2.11844	        .563300
2.11931	        .561100
2.12018	        .560500
2.12104	        .561500
2.12191	        .565900
2.12278	        .568500
2.12365	        .564500
2.12452	        .559000
2.12539	        .558500
2.12626	        .558200
2.12713	        .554400
2.12801	        .555400
2.12888	        .559300
2.12975	        .557100
2.13063	        .556000
2.1315	        .553000
2.13238	        .553300
2.13326	        .558400
2.13414	        .557700
2.13501	        .551300
2.13589	        .554000
2.13677	        .555000
2.13765	        .552200
2.13854	        .550300
2.13942	        .544100
2.1403	        .538800
2.14118	        .537200
2.14207	        .535400
2.14295	        .533800
2.14384	        .532500
2.14473	        .531100
2.14561	        .527900
2.1465	        .524300
2.14739	        .523900
2.14828	        .523000
2.14917	        .518000
2.15006	        .517500
2.15095	        .517600
2.15185	        .518800
2.15274	        .520200
2.15363	        .518400
2.15453	        .513300
2.15542	        .514700
2.15632	        .519000
2.15722	        .520200
2.15811	        .518700
2.15901	        .515900
2.15991	        .518800
2.16081	        .524600
2.16171	        .522000
2.16261	        .520000
2.16352	        .519600
2.16442	        .521100
2.16532	        .524500
2.16623	        .526900
2.16713	        .528500
2.16804	        .529700
2.16894	        .531600
2.16985	        .534000
2.17076	        .533600
2.17167	        .536800
2.17258	        .538100
2.17349	        .540200
2.1744	        .539400
2.17531	        .537900
2.17623	        .539000
2.17714	        .542000
2.17805	        .543400
2.17897	        .546000
2.17989	        .545300
2.1808	        .543800
2.18172	        .544400
2.18264	        .546600
2.18356	        .549100
2.18448	        .553000
2.1854	        .552800
2.18632	        .552400
2.18724	        .549100
2.18816	        .548100
2.18909	        .548300
2.19001	        .548200
2.19094	        .548600
2.19186	        .551500
2.19279	        .553600
2.19372	        .550200
2.19464	        .547100
2.19557	        .546500
2.1965	        .551900
2.19743	        .555200
2.19837	        .550200
2.1993	        .545100
2.20023	        .543300
2.20116	        .542900
2.2021	        .541600
2.20303	        .541100
2.20397	        .539300
2.20491	        .539600
2.20585	        .540300
2.20678	        .540600
2.20772	        .535700
2.20866	        .530300
2.20961	        .530100
2.21055	        .529700
2.21149	        .525600
2.21243	        .527200
2.21338	        .529300
2.21432	        .528500
2.21527	        .524300
2.21621	        .523300
2.21716	        .523600
2.21811	        .524000
2.21906	        .522300
2.22001	        .520900
2.22096	        .518300
2.22191	        .516300
2.22286	        .511700
2.22382	        .508500
2.22477	        .509400
2.22573	        .509900
2.22668	        .507100
2.22764	        .505500
2.2286	        .500400
2.22955	        .498400
2.23051	        .497200
2.23147	        .493700
2.23243	        .488800
2.23339	        .487100
2.23436	        .486200
2.23532	        .482600
2.23628	        .479900
2.23725	        .477800
2.23821	        .477000
2.23918	        .476600
2.24015	        .471300
2.24112	        .467300
2.24208	        .465000
2.24305	        .462800
2.24402	        .461000
2.245	        .458600
2.24597	        .457600
2.24694	        .454200
2.24791	        .450500
2.24889	        .448000
2.24987	        .444500
2.25084	        .442600
2.25182	        .441500
2.2528	        .439500
2.25378	        .435800
2.25476	        .433200
2.25574	        .428700
2.25672	        .426500
2.2577	        .426000
2.25868	        .422500
2.25967	        .418700
2.26065	        .418000
2.26164	        .415800
2.26263	        .413400
2.26361	        .409000
2.2646	        .404000
2.26559	        .401400
2.26658	        .402700
2.26757	        .399800
2.26856	        .393700
2.26956	        .388000
2.27055	        .388000
2.27155	        .386200
2.27254	        .382900
2.27354	        .378700
2.27453	        .376800
2.27553	        .373200
2.27653	        .368100
2.27753	        .364100
2.27853	        .362200
2.27953	        .358700
2.28054	        .353800
2.28154	        .348000
2.28254	        .346300
2.28355	        .343900
2.28455	        .342700
2.28556	        .340400
2.28657	        .336600
2.28758	        .333700
2.28859	        .332400
2.2896	        .328600
2.29061	        .325300
2.29162	        .323900
2.29263	        .323100
2.29365	        .322900
2.29466	        .320600
2.29568	        .315600
2.29669	        .315300
2.29771	        .315300
2.29873	        .316500
2.29975	        .317600
2.30077	        .316700
2.30179	        .311400
2.30281	        .310500
2.30384	        .312400
2.30486	        .311900
2.30588	        .307200
2.30691	        .302100
2.30794	        .301300
2.30896	        .299900
2.30999	        .297800
2.31102	        .297300
2.31205	        .296500
2.31308	        .297100
2.31412	        .296400
2.31515	        .297300
2.31618	        .297100
2.31722	        .295600
2.31825	        .292600
2.31929	        .288400
2.32033	        .288500
2.32137	        .287000
2.32241	        .281400
2.32345	        .280200
2.32449	        .279300
2.32553	        .276200
2.32657	        .273400
2.32762	        .270500
2.32866	        .266900
2.32971	        .267000
2.33076	        .267700
2.3318	        .267200
2.33285	        .263500
2.3339	        .260900
2.33495	        .260300
2.33601	        .256500
2.33706	        .253500
2.33811	        .255600
2.33917	        .256800
2.34022	        .256800
2.34128	        .258900
2.34234	        .261500
2.34339	        .259000
2.34445	        .261300
2.34551	        .264800
2.34657	        .267400
2.34764	        .268100
2.3487	        .270200
2.34976	        .273400
2.35083	        .277700
2.3519	        .283100
2.35296	        .290300
2.35403	        .295000
2.3551	        .299000
2.35617	        .305300
2.35724	        .313500
2.35831	        .317800
2.35939	        .324800
2.36046	        .331700
2.36153	        .337700
2.36261	        .345300
2.36369	        .352800
2.36476	        .359400
2.36584	        .366600
2.36692	        .370500
2.368	        .375200
2.36909	        .379400
2.37017	        .382000
2.37125	        .384400
2.37234	        .389800
2.37342	        .393900
2.37451	        .399300
2.3756	        .405100
2.37669	        .409900
2.37778	        .412500
2.37887	        .415200
2.37996	        .415600
2.38105	        .417900
2.38214	        .420200
2.38324	        .423900
2.38433	        .425000
2.38543	        .424700
2.38653	        .425000
2.38763	        .427500
2.38873	        .429700
2.38983	        .430300
2.39093	        .428300
2.39203	        .427100
2.39314	        .425400
2.39424	        .425100
2.39535	        .424600
2.39645	        .423600
2.39756	        .422700
2.39867	        .419600
2.39978	        .417400
2.40089	        .418100
2.402	        .420600
2.40312	        .419400
2.40423	        .417900
2.40535	        .419800
2.40646	        .419100
2.40758	        .419900
2.4087	        .419100
2.40982	        .416900
2.41094	        .418300
2.41206	        .418100
2.41318	        .416500
2.4143	        .415300
2.41543	        .411900
2.41655	        .410700
2.41768	        .407800
2.41881	        .404200
2.41994	        .400200
2.42107	        .397100
2.4222	        .394800
2.42333	        .393500
2.42446	        .388200
2.4256	        .385700
2.42673	        .385000
2.42787	        .383000
2.429	        .378600
2.43014	        .375000
2.43128	        .372600
2.43242	        .372400
2.43356	        .370000
2.43471	        .366400
2.43585	        .362400
2.43699	        .360200
2.43814	        .357100
2.43929	        .353400
2.44043	        .350400
2.44158	        .349300
2.44273	        .346200
2.44388	        .342200
2.44504	        .337100
2.44619	        .334400
2.44734	        .334100
2.4485	        .335400
2.44966	        .331100
2.45081	        .326800
2.45197	        .323600
2.45313	        .319800
2.45429	        .315400
2.45545	        .312600
2.45662	        .310100
2.45778	        .306500
2.45895	        .301600
2.46011	        .296500
2.46128	        .292700
2.46245	        .290600
2.46362	        .287700
2.46479	        .284200
2.46596	        .281300
2.46714	        .277500
2.46831	        .273500
2.46949	        .269300
2.47066	        .266000
2.47184	        .264000
2.47302	        .259400
2.4742	        .256600
2.47538	        .253300
2.47656	        .251000
2.47774	        .247600
2.47893	        .243200
2.48011	        .242100
2.4813	        .242000
2.48249	        .239800
2.48368	        .238700
2.48487	        .236900
2.48606	        .235600
2.48725	        .233600
2.48844	        .232000
2.48964	        .231700
2.49083	        .231100
2.49203	        .228800
2.49323	        .228900
2.49443	        .228900
2.49563	        .227000
2.49683	        .226100
2.49803	        .223200
2.49924	        .220200
2.50044	        .222600
2.50165	        .223100
2.50286	        .222800
2.50406	        .221800
2.50527	        .219900
2.50648	        .220800
2.5077	        .221300
2.50891	        .217400
2.51012	        .217500
2.51134	        .217000
2.51256	        .216200
2.51377	        .215000
2.51499	        .215600
2.51621	        .213400
2.51743	        .211400
2.51866	        .210200
2.51988	        .207200
2.52111	        .204100
2.52233	        .200900
2.52356	        .197800
2.52479	        .195400
2.52602	        .191800
2.52725	        .189800
2.52848	        .188700
2.52971	        .188100
2.53095	        .187600
2.53218	        .185900
2.53342	        .184300
2.53466	        .185800
2.5359	        .185300
2.53714	        .185300
2.53838	        .185700
2.53962	        .187100
2.54087	        .189300
2.54211	        .192700
2.54336	        .194200
2.54461	        .197600
2.54586	        .201100
2.54711	        .206900
2.54836	        .212200
2.54961	        .218500
2.55087	        .224500
2.55212	        .229500
2.55338	        .233700
2.55464	        .240900
2.55589	        .247700
2.55716	        .253700
2.55842	        .258100
2.55968	        .262700
2.56094	        .270800
2.56221	        .277900
2.56348	        .282500
2.56474	        .288800
2.56601	        .292300
2.56728	        .294000
2.56855	        .299000
2.56983	        .304900
2.5711	        .307800
2.57238	        .311100
2.57365	        .314900
2.57493	        .317200
2.57621	        .316600
2.57749	        .319700
2.57877	        .323500
2.58005	        .324500
2.58134	        .326900
2.58262	        .330200
2.58391	        .331200
2.5852	        .333300
2.58649	        .336800
2.58778	        .339500
2.58907	        .342400
2.59036	        .345900
2.59166	        .346000
2.59295	        .348400
2.59425	        .352000
2.59555	        .354800
2.59685	        .356200
2.59815	        .358400
2.59945	        .360500
2.60076	        .361300
2.60206	        .361300
2.60337	        .362500
2.60467	        .363700
2.60598	        .365500
2.60729	        .365700
2.6086	        .366800
2.60992	        .366400
2.61123	        .365300
2.61255	        .365400
2.61386	        .367200
2.61518	        .367200
2.6165	        .366300
2.61782	        .363300
2.61914	        .364400
2.62047	        .366200
2.62179	        .365600
2.62312	        .364100
2.62445	        .363100
2.62577	        .362800
2.6271	        .364700
2.62844	        .365700
2.62977	        .364600
2.6311	        .364000
2.63244	        .364500
2.63378	        .362300
2.63511	        .360100
2.63645	        .360100
2.63779	        .360300
2.63914	        .357700
2.64048	        .356900
2.64183	        .355900
2.64317	        .354700
2.64452	        .353600
2.64587	        .353400
2.64722	        .350100
2.64857	        .348100
2.64992	        .347900
2.65128	        .347100
2.65264	        .344800
2.65399	        .344200
2.65535	        .342100
2.65671	        .339900
2.65807	        .338400
2.65944	        .335900
2.6608	        .333900
2.66217	        .333000
2.66353	        .332000
2.6649	        .330400
2.66627	        .325500
2.66764	        .322700
2.66902	        .318800
2.67039	        .317100
2.67177	        .317000
2.67314	        .314600
2.67452	        .310300
2.6759	        .307300
2.67728	        .304400
2.67867	        .302700
2.68005	        .301400
2.68144	        .296200
2.68282	        .290100
2.68421	        .284800
2.6856	        .279300
2.68699	        .275200
2.68839	        .269500
2.68978	        .263700
2.69118	        .259800
2.69257	        .256900
2.69397	        .251500
2.69537	        .246400
2.69677	        .240300
2.69818	        .236300
2.69958	        .232200
2.70099	        .227400
2.7024	        .223000
2.7038	        .219100
2.70522	        .215000
2.70663	        .210200
2.70804	        .205300
2.70945	        .203300
2.71087	        .199000
2.71229	        .193800
2.71371	        .187800
2.71513	        .182500
2.71655	        .177500
2.71797	        .168800
2.7194	        .160200
2.72083	        .158900
2.72225	        .160300
2.72368	        .162800
2.72512	        .162700
2.72655	        .160400
2.72798	        .158100
2.72942	        .155900
2.73086	        .151600
2.73229	        .150800
2.73373	        .150000
2.73518	        .148400
2.73662	        .145400
2.73806	        .142700
2.73951	        .139700
2.74096	        .139100
2.74241	        .138500
2.74386	        .138100
2.74531	        .136800
2.74677	        .135200
2.74822	        .133200
2.74968	        .131700
2.75114	        .132400
2.7526	        .132300
2.75406	        .129400
2.75552	        .128000
2.75699	        .125900
2.75845	        .123800
2.75992	        .123000
2.76139	        .121800
2.76286	        .120400
2.76433	        .120800
2.76581	        .120900
2.76728	        .119900
2.76876	        .117700
2.77024	        .115700
2.77172	        .114000
2.7732	        .115100
2.77469	        .114100
2.77617	        .113000
2.77766	        .111900
2.77915	        .111400
2.78064	        .111100
2.78213	        .109700
2.78362	        .107300
2.78512	        .105200
2.78661	        .104500
2.78811	        .106500
2.78961	        .105300
2.79111	        .104100
2.79262	        .104200
2.79412	        .105500
2.79563	        .106300
2.79714	        .105500
2.79864	        .104900
2.80016	        .105700
2.80167	        .105300
2.80318	        .105200
2.8047	        .104000
2.80622	        .103600
2.80774	        .102500
2.80926	        .102200
2.81078	        .102100
2.8123	        .101200
2.81383	        .099600
2.81536	        .100000
2.81689	        .100500
2.81842	        .100700
2.81995	        .099200
2.82148	        .099100
2.82302	        .099400
2.82456	        .099300
2.8261	        .097500
2.82764	        .096100
2.82918	        .096900
2.83072	        .097800
2.83227	        .097600
2.83382	        .096500
2.83537	        .094700
2.83692	        .096200
2.83847	        .095800
2.84002	        .096100
2.84158	        .095900
2.84314	        .095500
2.8447	        .096100
2.84626	        .094600
2.84782	        .091700
2.84939	        .092200
2.85095	        .092900
2.85252	        .093100
2.85409	        .093300
2.85566	        .093400
2.85724	        .091900
2.85881	        .090700
2.86039	        .091100
2.86197	        .091500
2.86355	        .090700
2.86513	        .090200
2.86671	        .089500
2.8683	        .089700
2.86988	        .090000
2.87147	        .089300
2.87306	        .089000
2.87466	        .089100
2.87625	        .089300
2.87785	        .089900
2.87945	        .088600
2.88104	        .088400
2.88265	        .087200
2.88425	        .086600
2.88585	        .088200
2.88746	        .088400
2.88907	        .086200
2.89068	        .085500
2.89229	        .085500
2.89391	        .086100
2.89552	        .085700
2.89714	        .085400
2.89876	        .084200
2.90038	        .084500
2.902	        .085000
2.90363	        .084700
2.90525	        .084300
2.90688	        .085200
2.90851	        .084600
2.91014	        .085100
2.91178	        .085400
2.91341	        .085200
2.91505	        .084700
2.91669	        .083900
2.91833	        .082800
2.91998	        .084400
2.92162	        .084700
2.92327	        .083800
2.92492	        .083200
2.92657	        .083800
2.92822	        .083400
2.92987	        .084400
2.93153	        .084600
2.93319	        .084000
2.93485	        .082900
2.93651	        .083500
2.93817	        .083700
2.93984	        .082400
2.94151	        .082200
2.94318	        .083300
2.94485	        .083200
2.94652	        .082900
2.94819	        .081900
2.94987	        .082000
2.95155	        .082700
2.95323	        .084300
2.95491	        .083700
2.9566	        .082500
2.95828	        .081400
2.95997	        .081800
2.96166	        .082600
2.96336	        .083300
2.96505	        .083100
2.96675	        .083200
2.96844	        .083400
2.97014	        .083100
2.97185	        .082000
2.97355	        .083000
2.97526	        .083700
2.97696	        .084300
2.97867	        .083800
2.98039	        .083100
2.9821	        .083600
2.98382	        .084400
2.98553	        .084300
2.98725	        .083500
2.98897	        .082600
2.9907	        .083500
2.99242	        .084000
2.99415	        .083800
2.99588	        .083600
2.99761	        .083700
2.99935	        .083100
3.00108	        .084100
3.00282	        .084800
3.00456	        .084900
3.0063	        .084500
3.00804	        .084500
3.00979	        .084100
3.01154	        .084900
3.01329	        .084900
3.01504	        .084300
3.01679	        .083100
3.01855	        .084000
3.02031	        .084900
3.02207	        .084100
3.02383	        .083700
3.02559	        .085600
3.02736	        .085200
3.02913	        .084500
3.0309	        .084400
3.03267	        .085500
3.03444	        .085700
3.03622	        .085500
3.038	        .085000
3.03978	        .084800
3.04156	        .084600
3.04335	        .085600
3.04514	        .085100
3.04692	        .084400
3.04872	        .083900
3.05051	        .084500
3.0523	        .085700
3.0541	        .086900
3.0559	        .086400
3.0577	        .085500
3.05951	        .085300
3.06131	        .086000
3.06312	        .085900
3.06493	        .085600
3.06674	        .085400
3.06856	        .087000
3.07037	        .086500
3.07219	        .085700
3.07401	        .087100
3.07584	        .087200
3.07766	        .086200
3.07949	        .086500
3.08132	        .087000
3.08315	        .087100
3.08499	        .086400
3.08682	        .086800
3.08866	        .087400
3.0905	        .087400
3.09234	        .086200
3.09419	        .085800
3.09604	        .086900
3.09789	        .087600
3.09974	        .086600
3.10159	        .086400
3.10345	        .087300
3.10531	        .087900
3.10717	        .087800
3.10903	        .088400
3.11089	        .088100
3.11276	        .088600
3.11463	        .088700
3.1165	        .089100
3.11838	        .089600
3.12025	        .089600
3.12213	        .089400
3.12401	        .090900
3.12589	        .091400
3.12778	        .091900
3.12967	        .091600
3.13156	        .091100
3.13345	        .091400
3.13534	        .092500
3.13724	        .092600
3.13914	        .092800
3.14104	        .092000
3.14294	        .092800
3.14485	        .093400
3.14676	        .093500
3.14867	        .092800
3.15058	        .093400
3.1525	        .093800
3.15441	        .094600
3.15633	        .095200
3.15825	        .095800
3.16018	        .095800
3.16211	        .096400
3.16404	        .096500
3.16597	        .097100
3.1679	        .098100
3.16984	        .099000
3.17178	        .098900
3.17372	        .098800
3.17566	        .099100
3.17761	        .100000
3.17955	        .100400
3.1815	        .101200
3.18346	        .101400
3.18541	        .102100
3.18737	        .101500
3.18933	        .101300
3.19129	        .101500
3.19326	        .101900
3.19523	        .102200
3.1972	        .102600
3.19917	        .103600
3.20114	        .104300
3.20312	        .104200
3.2051	        .104700
3.20708	        .104200
3.20907	        .104100
3.21105	        .103900
3.21304	        .103800
3.21503	        .103900
3.21703	        .104800
3.21903	        .105300
3.22102	        .105600
3.22303	        .106100
3.22503	        .106600
3.22704	        .105900
3.22905	        .105400
3.23106	        .105200
3.23307	        .105700
3.23509	        .106000
3.23711	        .106300
3.23913	        .106700
3.24115	        .106900
3.24318	        .106100
3.24521	        .106100
3.24724	        .105700
3.24928	        .106000
3.25131	        .106100
3.25335	        .106100
3.2554	        .106700
3.25744	        .106800
3.25949	        .106300
3.26154	        .105900
3.26359	        .105900
3.26565	        .106500
3.2677	        .106100
3.26976	        .105600
3.27183	        .105200
3.27389	        .106000
3.27596	        .106100
3.27803	        .105500
3.2801	        .105000
3.28218	        .104600
3.28426	        .104000
3.28634	        .104000
3.28842	        .103500
3.29051	        .103500
3.2926	        .102900
3.29469	        .102100
3.29678	        .101700
3.29888	        .101500
3.30098	        .100800
3.30308	        .101300
3.30519	        .100800
3.3073	        .099300
3.30941	        .097900
3.31152	        .097300
3.31364	        .096100
3.31575	        .095500
3.31788	        .094500
3.32	        .093300
3.32213	        .091900
3.32426	        .090400
3.32639	        .088800
3.32852	        .087000
3.33066	        .084900
3.3328	        .083400
3.33494	        .080400
3.33709	        .076900
3.33924	        .073900
3.34139	        .071200
3.34354	        .068600
3.3457	        .067200
3.34786	        .066200
3.35002	        .065500
3.35219	        .065500
3.35436	        .066400
3.35653	        .067000
3.3587	        .067400
3.36088	        .067300
3.36306	        .067400
3.36524	        .067800
3.36743	        .068400
3.36961	        .068400
3.3718	        .068300
3.374	        .068100
3.37619	        .067400
3.37839	        .066700
3.3806	        .067600
3.3828	        .067500
3.38501	        .066900
3.38722	        .067700
3.38943	        .068100
3.39165	        .066200
3.39387	        .065800
3.39609	        .066500
3.39832	        .066700
3.40055	        .066600
3.40278	        .067100
3.40501	        .066200
3.40725	        .065900
3.40949	        .065400
3.41173	        .065000
3.41398	        .065000
3.41623	        .064700
3.41848	        .065200
3.42073	        .066600
3.42299	        .066700
3.42525	        .066000
3.42751	        .064900
3.42978	        .065100
3.43205	        .065700
3.43432	        .066100
3.4366	        .066800
3.43888	        .067700
3.44116	        .067500
3.44345	        .067600
3.44573	        .067200
3.44802	        .067200
3.45032	        .067100
3.45261	        .067400
3.45491	        .066800
3.45722	        .065700
3.45952	        .064600
3.46183	        .064100
3.46415	        .063100
3.46646	        .061600
3.46878	        .060100
3.4711	        .059800
3.47343	        .059200
3.47575	        .059100
3.47809	        .059200
3.48042	        .060000
3.48276	        .060300
3.4851	        .060400
3.48744	        .060800
3.48979	        .061800
3.49214	        .061900
3.49449	        .063400
3.49685	        .064200
3.49921	        .064100
3.50157	        .064500
3.50393	        .065200
3.5063	        .065800
3.50868	        .066200
3.51105	        .067700
3.51343	        .070600
3.51581	        .072400
3.5182	        .074200
3.52058	        .076000
3.52298	        .078000
3.52537	        .079600
3.52777	        .082700
3.53017	        .085800
3.53257	        .087700
3.53498	        .089100
3.53739	        .091200
3.53981	        .092700
3.54223	        .093700
3.54465	        .094400
3.54707	        .095800
3.5495	        .097900
3.55193	        .100400
3.55436	        .101000
3.5568	        .101100
3.55924	        .101900
3.56169	        .103000
3.56414	        .103100
3.56659	        .103100
3.56904	        .102800
3.5715	        .103100
3.57396	        .104500
3.57642	        .107000
3.57889	        .110100
3.58136	        .112300
3.58384	        .113300
3.58632	        .115100
3.5888	        .117100
3.59128	        .119500
3.59377	        .120800
3.59626	        .122200
3.59876	        .123200
3.60126	        .123800
3.60376	        .124600
3.60627	        .126400
3.60878	        .128300
3.61129	        .129500
3.61381	        .129300
3.61633	        .129500
3.61885	        .130400
3.62138	        .131600
3.62391	        .132100
3.62644	        .133100
3.62898	        .133900
3.63152	        .133900
3.63406	        .134800
3.63661	        .136400
3.63916	        .136900
3.64172	        .136800
3.64428	        .136300
3.64684	        .136600
3.64941	        .137400
3.65198	        .138100
3.65455	        .138500
3.65713	        .139000
3.65971	        .139200
3.66229	        .139100
3.66488	        .138800
3.66747	        .139000
3.67007	        .139200
3.67267	        .139600
3.67527	        .139800
3.67788	        .140100
3.68049	        .140000
3.6831	        .140000
3.68572	        .139300
3.68834	        .139000
3.69096	        .139200
3.69359	        .139300
3.69623	        .139000
3.69886	        .138600
3.7015	        .137700
3.70415	        .137500
3.70679	        .137000
3.70944	        .136600
3.7121	        .135900
3.71476	        .135400
3.71742	        .135300
3.72009	        .134800
3.72276	        .133500
3.72543	        .132600
3.72811	        .131900
3.73079	        .131400
3.73348	        .130200
3.73617	        .128600
3.73886	        .127500
3.74156	        .126200
3.74426	        .124500
3.74697	        .124100
3.74967	        .124100
3.75239	        .122800
3.7551	        .121500
3.75783	        .120600
3.76055	        .119700
3.76328	        .118600
3.76601	        .117200
3.76875	        .115500
3.77149	        .113500
3.77423	        .112200
3.77698	        .110400
3.77974	        .108000
3.78249	        .105500
3.78525	        .103000
3.78802	        .099900
3.79079	        .096500
3.79356	        .093300
3.79634	        .090200
3.79912	        .087000
3.8019	        .084900
3.80469	        .083200
3.80748	        .081200
3.81028	        .079700
3.81308	        .078900
3.81589	        .077400
3.8187	        .076200
3.82151	        .074900
3.82433	        .074100
3.82715	        .072800
3.82998	        .071700
3.83281	        .070300
3.83564	        .069900
3.83848	        .069700
3.84133	        .069700
3.84417	        .069200
3.84703	        .068900
3.84988	        .068100
3.85274	        .067500
3.85561	        .067700
3.85847	        .067700
3.86135	        .066800
3.86422	        .066900
3.86711	        .066800
3.86999	        .066500
3.87288	        .066700
3.87578	        .067000
3.87867	        .066900
3.88158	        .066600
3.88448	        .066200
3.8874	        .066000
3.89031	        .065800
3.89323	        .065500
3.89616	        .065300
3.89909	        .065600
3.90202	        .065700
3.90496	        .065300
3.9079	        .064600
3.91085	        .064600
3.9138	        .064600
3.91676	        .064300
3.91972	        .063300
3.92268	        .062500
3.92565	        .062100
3.92862	        .061800
3.9316	        .061700
3.93458	        .061300
3.93757	        .059400
3.94056	        .057500
3.94356	        .056400
3.94656	        .055400
3.94957	        .053800
3.95258	        .052600
3.95559	        .052200
3.95861	        .051700
3.96163	        .050700
3.96466	        .050200
3.9677	        .050000
3.97073	        .049800
3.97378	        .050100
3.97682	        .049800
3.97988	        .049700
3.98293	        .050800
3.98599	        .051700
3.98906	        .052900
3.99213	        .054200
3.99521	        .055700
3.99829	        .057400
4.00137	        .059100
4.00446	        .061100
4.00755	        .063500
4.01065	        .065100
4.01376	        .066300
4.01687	        .066800
4.01998	        .068000
4.0231	        .069600
4.02622	        .070800
4.02935	        .072400
4.03248	        .074700
4.03562	        .076800
4.03876	        .078400
4.04191	        .080200
4.04506	        .081700
4.04822	        .082700
4.05138	        .084400
4.05455	        .085700
4.05772	        .086600
4.0609	        .088200
4.06408	        .089600
4.06727	        .090200
4.07046	        .090900
4.07366	        .092100
4.07686	        .093200
4.08007	        .093900
4.08328	        .095200
4.0865	        .096400
4.08972	        .097100
4.09295	        .097200
4.09618	        .098400
4.09942	        .099600
4.10266	        .100300
4.10591	        .100900
4.10916	        .101400
4.11242	        .102400
4.11569	        .103700
4.11896	        .104300
4.12223	        .105200
4.12551	        .106500
4.12879	        .107400
4.13208	        .107800
4.13538	        .108400
4.13868	        .109300
4.14198	        .110600
4.14529	        .111800
4.14861	        .112700
4.15193	        .113600
4.15526	        .114200
4.15859	        .114600
4.16193	        .115500
4.16527	        .116000
4.16862	        .116200
4.17197	        .116200
4.17533	        .116700
4.17869	        .117300
4.18206	        .117700
4.18544	        .118000
4.18882	        .118600
4.19221	        .119100
4.1956	        .119600
4.19899	        .119800
4.2024	        .120300
4.2058	        .120500
4.20922	        .121400
4.21264	        .121600
4.21606	        .120900
4.21949	        .121000
4.22293	        .121500
4.22637	        .121700
4.22982	        .121600
4.23327	        .121800
4.23673	        .122500
4.24019	        .122100
4.24366	        .122100
4.24714	        .122600
4.25062	        .122200
4.2541	        .121400
4.2576	        .121400
4.26109	        .120900
4.2646	        .120700
4.26811	        .120900
4.27162	        .121400
4.27514	        .121700
4.27867	        .121500
4.2822	        .121900
4.28574	        .122700
4.28929	        .122300
4.29284	        .121600
4.2964	        .121100
4.29996	        .120900
4.30353	        .120300
4.3071	        .120000
4.31068	        .120100
4.31427	        .119900
4.31786	        .119600
4.32146	        .119400
4.32506	        .119200
4.32867	        .118900
4.33229	        .118700
4.33591	        .118800
4.33954	        .118600
4.34317	        .118500
4.34681	        .119000
4.35046	        .120000
4.35411	        .120600
4.35777	        .121200
4.36143	        .122300
4.3651	        .123300
4.36878	        .123700
4.37246	        .123800
4.37615	        .123700
4.37985	        .123700
4.38355	        .123300
4.38726	        .122300
4.39097	        .122200
4.39469	        .122200
4.39842	        .121900
4.40216	        .121400
4.4059	        .120400
4.40964	        .119500
4.41339	        .119400
4.41715	        .119000
4.42092	        .117500
4.42469	        .116300
4.42847	        .115600
4.43225	        .114800
4.43604	        .113800
4.43984	        .112800
4.44365	        .111000
4.44746	        .109300
4.45127	        .108900
4.4551	        .108100
4.45893	        .107000
4.46277	        .106400
4.46661	        .105800
4.47046	        .104700
4.47432	        .103200
4.47818	        .102000
4.48205	        .101600
4.48593	        .100900
4.48981	        .099400
4.4937	        .097700
4.4976	        .096700
4.5015	        .096600
4.50541	        .097000
4.50933	        .097200
4.51325	        .096700
4.51718	        .096200
4.52112	        .096100
4.52507	        .096500
4.52902	        .096300
4.53298	        .095700
4.53694	        .095200
4.54092	        .095300
4.5449	        .095400
4.54888	        .095500
4.55288	        .095100
4.55688	        .094500
4.56088	        .094100
4.5649	        .094100
4.56892	        .093900
4.57295	        .093700
4.57698	        .093300
4.58103	        .093000
4.58508	        .092800
4.58913	        .092200
4.5932	        .091100
4.59727	        .090700
4.60135	        .090600
4.60544	        .089700
4.60953	        .088700
4.61363	        .087700
4.61774	        .086300
4.62185	        .085100
4.62597	        .084000
4.6301	        .083000
4.63424	        .081400
4.63839	        .079800
4.64254	        .077700
4.6467	        .076100
4.65087	        .075300
4.65504	        .075100
4.65922	        .074800
4.66341	        .074100
4.66761	        .073700
4.67181	        .073600
4.67603	        .073800
4.68025	        .074300
4.68447	        .075100
4.68871	        .075700
4.69295	        .076100
4.6972	        .077600
4.70146	        .079200
4.70573	        .080300
4.71	        .082500
4.71428	        .085100
4.71857	        .087000
4.72287	        .089100
4.72717	        .091000
4.73149	        .092000
4.73581	        .093100
4.74013	        .094600
4.74447	        .095300
4.74882	        .096200
4.75317	        .097500
4.75753	        .098000
4.7619	        .098600
4.76627	        .099700
4.77066	        .099500
4.77505	        .098900
4.77945	        .099200
4.78386	        .099800
4.78828	        .099900
4.7927	        .099400
4.79713	        .099000
4.80158	        .099100
4.80603	        .099500
4.81048	        .099300
4.81495	        .099000
4.81942	        .098700
4.82391	        .098500
4.8284	        .098200
4.8329	        .098600
4.8374	        .098800
4.84192	        .098400
4.84645	        .097800
4.85098	        .097300
4.85552	        .097200
4.86007	        .096900
4.86463	        .096700
4.8692	        .096900
4.87377	        .097200
4.87836	        .096600
4.88295	        .096400
4.88755	        .096700
4.89216	        .096400
4.89678	        .095700
4.90141	        .095500
4.90605	        .095500
4.91069	        .095300
4.91535	        .095300
4.92001	        .095300
4.92468	        .094800
4.92936	        .094400
4.93405	        .094600
4.93875	        .094600
4.94346	        .094400
4.94818	        .093900
4.9529	        .093400
4.95764	        .093500
4.96238	        .093600
4.96713	        .093300
4.97189	        .093200
4.97667	        .093500
4.98145	        .093700
4.98623	        .093600
4.99103	        .093400
4.99584	        .093100
5.00066	        .092900
5.00549	        .093000
5.01032	        .093100
5.01517	        .092800
5.02002	        .092900
5.02488	        .093200
5.02976	        .093600
5.03464	        .093400
5.03953	        .093000
5.04443	        .092900
5.04935	        .092700
5.05427	        .092400
5.0592	        .092100
5.06414	        .091500
5.06909	        .090500
5.07405	        .088800
5.07902	        .086200
5.084	        .082100
5.08898	        .076900
5.09398	        .073700
5.09899	        .075000
5.10401	        .078500
5.10904	        .082000
5.11408	        .084400
5.11912	        .085700
5.12418	        .086300
5.12925	        .086200
5.13433	        .086000
5.13942	        .085600
5.14451	        .085400
5.14962	        .085000
5.15474	        .084400
5.15987	        .084000
5.16501	        .083700
5.17016	        .083600
5.17532	        .083000
5.18049	        .082100
5.18567	        .081500
5.19086	        .080800
5.19606	        .080300
5.20127	        .079800
5.20649	        .079500
5.21172	        .079300
5.21696	        .078900
5.22222	        .078100
5.22748	        .077200
5.23276	        .076700
5.23804	        .076500
5.24334	        .076000
5.24864	        .075200
5.25396	        .074500
5.25929	        .073800
5.26463	        .073300
5.26998	        .072800
5.27534	        .072100
5.28071	        .071400
5.28609	        .071100
5.29149	        .070500
5.29689	        .069700
5.30231	        .068700
5.30773	        .067700
5.31317	        .067000
5.31862	        .066400
5.32408	        .065200
5.32955	        .064300
5.33503	        .063800
5.34053	        .063100
5.34603	        .062200
5.35155	        .061400
5.35708	        .060800
5.36262	        .059900
5.36817	        .059200
5.37373	        .058700
5.3793	        .058100
5.38489	        .057300
5.39049	        .056300
5.39609	        .055100
5.40171	        .054400
5.40735	        .053700
5.41299	        .053100
5.41865	        .052300
5.42431	        .051300
5.42999	        .050700
5.43568	        .050000
5.44139	        .049100
5.4471	        .048300
5.45283	        .047600
5.45857	        .046400
5.46432	        .044900
5.47008	        .044100
5.47586	        .043300
5.48165	        .042700
5.48745	        .042100
5.49326	        .041000
5.49908	        .040100
5.50492	        .039000
5.51077	        .037800
5.51663	        .036500
5.52251	        .034500
5.52839	        .032400
5.53429	        .030300
5.54021	        .027700
5.54613	        .025800
5.55207	        .025200
5.55802	        .025500
5.56398	        .026200
5.56996	        .027100
5.57595	        .028900
5.58195	        .030800
5.58796	        .032200
5.59399	        .034000
5.60003	        .035000
5.60608	        .035800
5.61215	        .036100
5.61823	        .036400
5.62432	        .036400
5.63043	        .036200
5.63655	        .036200
5.64268	        .036300
5.64883	        .035800
5.65499	        .034900
5.66116	        .034500
5.66735	        .034000
5.67355	        .033000
5.67976	        .032700
5.68599	        .032600
5.69223	        .031900
5.69848	        .031700
5.70475	        .031500
5.71103	        .030900
5.71733	        .030000
5.72364	        .029700
5.72996	        .029500
5.7363	        .029200
5.74265	        .028800
5.74902	        .028400
5.7554	        .028400
5.76179	        .028400
5.7682	        .028300
5.77462	        .028000
5.78106	        .027900
5.78751	        .027800
5.79398	        .027900
5.80046	        .028100
5.80695	        .027900
5.81346	        .027300
5.81998	        .027400
5.82652	        .027500
5.83308	        .027300
5.83964	        .027300
5.84623	        .026900
5.85283	        .026300
5.85944	        .026300
5.86607	        .026400
5.87271	        .026300
5.87937	        .026000
5.88604	        .025600
5.89273	        .025300
5.89943	        .024900
5.90615	        .024500
5.91288	        .024600
5.91963	        .024000
5.9264	        .023400
5.93318	        .023000
5.93997	        .022300
5.94678	        .022500
5.95361	        .022700
5.96045	        .022200
5.96731	        .021700
5.97418	        .021500
5.98107	        .021500
5.98798	        .021400
5.9949	        .021100
6.00184	        .020600
6.00879	        .020400
6.01576	        .019900
6.02275	        .019900
6.02975	        .019900
6.03677	        .020100
6.04381	        .019800
6.05086	        .019200
6.05793	        .018800
6.06501	        .019000
6.07211	        .019300
6.07923	        .019500
6.08636	        .019500
6.09351	        .019300
6.10068	        .019400
6.10787	        .020100
6.11507	        .020500
6.12229	        .020300
6.12952	        .020100
6.13678	        .020500
6.14405	        .020800
6.15134	        .021200
6.15864	        .022000
6.16596	        .022500
6.1733	        .022400
6.18066	        .023100
6.18803	        .024000
6.19543	        .024700
6.20284	        .025900
6.21026	        .027200
6.21771	        .028300
6.22517	        .030200
6.23265	        .031900
6.24015	        .034300
6.24767	        .036600
6.25521	        .039500
6.26276	        .042000
6.27033	        .044000
6.27792	        .046400
6.28553	        .049000
6.29316	        .052100
6.3008	        .056400
6.30847	        .061400
6.31615	        .067400
6.32385	        .074500
6.33157	        .082800
6.33931	        .093500
6.34707	        .104900
6.35485	        .116100
6.36265	        .128400
6.37046	        .141100
6.3783	        .155200
6.38615	        .170900
6.39402	        .187400
6.40192	        .205900
6.40983	        .226500
6.41776	        .248700
6.42571	        .273800
6.43368	        .299500
6.44167	        .322100
6.44969	        .339100
6.45772	        .349100
6.46577	        .354600
6.47384	        .357100
6.48193	        .357700
6.49004	        .356900
6.49817	        .355000
6.50633	        .352800
6.5145	        .350400
6.52269	        .347400
6.53091	        .344200
6.53914	        .340900
6.5474	        .337300
6.55567	        .333300
6.56397	        .328400
6.57229	        .323100
6.58063	        .317700
6.58899	        .312200
6.59737	        .306600
6.60577	        .302100
6.6142	        .297800
6.62265	        .294100
6.63111	        .289700
6.6396	        .285100
6.64811	        .281600
6.65665	        .277900
6.6652	        .273500
6.67378	        .269600
6.68238	        .265200
6.691	        .261000
6.69964	        .256300
6.70831	        .251100
6.717	        .246400
6.72571	        .241900
6.73444	        .237000
6.7432	        .233400
6.75198	        .229800
6.76078	        .226200
6.76961	        .222400
6.77845	        .219800
6.78732	        .216900
6.79622	        .214000
6.80514	        .211400
6.81408	        .209300
6.82304	        .207100
6.83203	        .204200
6.84104	        .201400
6.85008	        .199900
6.85914	        .197900
6.86822	        .195500
6.87733	        .193200
6.88646	        .191000
6.89562	        .189200
6.9048	        .187300
6.91401	        .184900
6.92324	        .183300
6.93249	        .182300
6.94177	        .182100
6.95107	        .181700
6.9604	        .181100
6.96976	        .180400
6.97914	        .180100
6.98854	        .180500
6.99797	        .180500
7.00743	        .179900
7.01691	        .180100
7.02641	        .179900
7.03595	        .179900
7.04551	        .179400
7.05509	        .179400
7.0647	        .178200
7.07434	        .176100
7.084	        .173100
7.09369	        .168200
7.10341	        .161000
7.11315	        .152700
7.12292	        .145800
7.13271	        .141700
7.14254	        .138900
7.15239	        .135800
7.16227	        .131400
7.17217	        .127500
7.1821	        .124100
7.19206	        .121000
7.20205	        .117300
7.21207	        .115000
7.22211	        .113200
7.23218	        .111100
7.24228	        .109100
7.25241	        .108200
7.26257	        .107500
7.27275	        .106500
7.28296	        .105600
7.29321	        .105500
7.30348	        .105200
7.31378	        .105600
7.3241	        .105400
7.33446	        .104900
7.34485	        .104100
7.35527	        .104200
7.36571	        .104200
7.37619	        .103700
7.3867	        .103200
7.39723	        .102700
7.4078	        .102100
7.41839	        .101800
7.42902	        .101400
7.43968	        .101300
7.45037	        .100800
7.46108	        .100800
7.47183	        .100300
7.48261	        .099800
7.49343	        .099100
7.50427	        .098800
7.51514	        .098200
7.52605	        .097400
7.53699	        .097300
7.54796	        .097100
7.55896	        .095700
7.56999	        .095100
7.58106	        .095000
7.59215	        .095400
7.60328	        .095700
7.61445	        .096400
7.62564	        .096100
7.63687	        .096500
7.64814	        .096900
7.65943	        .097600
7.67076	        .097500
7.68212	        .097700
7.69352	        .097800
7.70495	        .097900
7.71641	        .098000
7.72791	        .098400
7.73944	        .097900
7.75101	        .097700
7.76261	        .097000
7.77425	        .096500
7.78592	        .095800
7.79763	        .096000
7.80937	        .096300
7.82115	        .096100
7.83296	        .095300
7.84481	        .095400
7.85669	        .094800
7.86861	        .095000
7.88057	        .094500
7.89256	        .093700
7.90459	        .093200
7.91666	        .093600
7.92876	        .093200
7.9409	        .093500
7.95308	        .093800
7.96529	        .093700
7.97755	        .093000
7.98984	        .092300
8.00217	        .091000
8.01453	        .090500
8.02694	        .089800
8.03938	        .089600
8.05186	        .089500
8.06438	        .089800
8.07694	        .089700
8.08954	        .089600
8.10218	        .089100
8.11486	        .089300
8.12757	        .089200
8.14033	        .089500
8.15313	        .089400
8.16596	        .089600
8.17884	        .089100
8.19176	        .089300
8.20472	        .089100
8.21772	        .088800
8.23076	        .088500
8.24385	        .088600
8.25697	        .087800
8.27014	        .087200
8.28335	        .086400
8.2966	        .085600
8.30989	        .084700
8.32323	        .084600
8.33661	        .084200
8.35003	        .083500
8.3635	        .082200
8.37701	        .081200
8.39056	        .080300
8.40416	        .080400
8.4178	        .079700
8.43148	        .079600
8.44521	        .077600
8.45899	        .076800
8.47281	        .076600
8.48667	        .076900
8.50058	        .076900
8.51454	        .076600
8.52854	        .076100
8.54259	        .075900
8.55668	        .075400
8.57083	        .075100
8.58501	        .074700
8.59925	        .075300
8.61353	        .075500
8.62786	        .076400
8.64224	        .076800
8.65666	        .078300
8.67114	        .079000
8.68566	        .079800
8.70023	        .079700
8.71485	        .081000
8.72952	        .081500
8.74424	        .082300
8.75901	        .083200
8.77383	        .084000
8.78869	        .083300
8.80361	        .084200
8.81858	        .085500
8.8336	        .086500
8.84868	        .086100
8.8638	        .086500
8.87897	        .086600
8.8942	        .086900
8.90948	        .086100
8.92481	        .086300
8.9402	        .086900
8.95564	        .087900
8.97113	        .087000
8.98667	        .086800
9.00227	        .086500
9.01793	        .085900
9.03364	        .085600
9.0494	        .086000
9.06522	        .085400
9.08109	        .085800
9.09702	        .085700
9.113	        .086000
9.12904	        .084900
9.14514	        .083700
9.1613	        .080900
9.17751	        .078500
9.19378	        .076200
9.21011	        .075900
9.22649	        .077900
9.24294	        .081900
9.25944	        .082300
9.276	        .081700
9.29262	        .081000
9.3093	        .081900
9.32604	        .081700
9.34284	        .081800
9.3597	        .080600
9.37663	        .081400
9.39361	        .081900
9.41066	        .081900
9.42776	        .081400
9.44493	        .081800
9.46217	        .080800
9.47946	        .079600
9.49682	        .078700
9.51424	        .078200
9.53173	        .077500
9.54928	        .078200
9.56689	        .078100
9.58458	        .077900
9.60232	        .077300
9.62013	        .076500
9.63801	        .075100
9.65596	        .074900
9.67397	        .073500
9.69205	        .072800
9.71019	        .071200
9.72841	        .070800
9.74669	        .070300
9.76504	        .069700
9.78347	        .068600
9.80196	        .068900
9.82052	        .069000
9.83915	        .068700
9.85785	        .067300
9.87662	        .067300
9.89547	        .067200
9.91439	        .067700
9.93338	        .066500
9.95244	        .065800
9.97158	        .065600
9.99078	        .066500
10.01007        .066600
10.02943        .066500
10.04886        .067500
10.06837        .068700
10.08795        .068600
10.10761        .069100
10.12735        .069200
10.14717        .069700
10.16706        .069400
10.18703        .069500
10.20708        .069500
10.22721        .071100
10.24742        .072000
10.26771        .072700
10.28807        .073000
10.30852        .073700
10.32906        .073200
10.34967        .073500
10.37036        .072800
10.39114        .072600
10.412	        .072300
10.43295        .072900
10.45398        .072300
10.4751	        .071300
10.4963	        .070700
10.51758        .071400
10.53896        .070900
10.56042        .071200
10.58196        .071700
10.6036	        .072000
10.62532        .071400
10.64714        .071400
10.66904        .070700
10.69103        .070800
10.71312        .071700
10.7353	        .073800
10.75756        .074500
10.77993        .075700
10.80238        .077500
10.82493        .079500
10.84757        .079200
10.8703	        .079800
10.89314        .080300
10.91606        .081400
10.93909        .081800
10.96221        .082100
10.98543        .082500
11.00875        .083800
11.03217        .083900
11.05569        .084500
11.07931        .085100
11.10303        .087200
11.12685        .088900
11.15077        .092300
11.1748	        .098800
11.19893        .115100
11.22317        .144000
11.24751        .167700
11.27195        .166200
11.2965	        .157900
11.32116        .152600
11.34593        .142900
11.37081        .125000
11.39579        .106800
11.42089        .094000
11.4461	        .087100
11.47141        .081800
11.49684        .079600
11.52239        .078900
11.54804        .079300
11.57382        .078700
11.5997	        .078200
11.62571        .076300
11.65183        .075400
11.67806        .073800
11.70442        .071400
11.73089        .067400
11.75749        .064100
11.7842	        .065800
11.81104        .069800
11.838	        .070900
11.86509        .072000
11.89229        .072000
11.91963        .072300
11.94709        .071700
11.97467        .072100
12.00238        .070900
12.03023        .070600
12.0582	        .069800
12.0863	        .069600
12.11453        .069300
12.1429	        .068700
12.17139        .067200
12.20003        .066600
12.22879        .065900
12.2577	        .065300
12.28674        .063600
12.31592        .064400
12.34523        .064200
12.37469        .064000
12.40429        .063100
12.43403        .063600
12.46391        .063300
12.49394        .062900
12.52411        .061500
12.55443        .061600
12.58489        .060800
12.6155	        .060200
12.64627        .059100
12.67718        .058700
12.70824        .057400
12.73946        .057500
12.77083        .056800
12.80236        .057600
12.83404        .057400
12.86588        .057500
12.89788        .056700
12.93003        .057200
12.96235        .056800
12.99483        .057000
13.02747        .056600
13.06028        .057300
13.09325        .057000
13.12639        .057500
13.1597	        .056900
13.19318        .056400
13.22682        .055700
13.26064        .056600
13.29464        .056800
13.32881        .057100
13.36315        .055900
13.39767        .054900
13.43237        .053500
13.46725        .053000
13.50232        .052000
13.53756        .052200
13.57299        .049900
13.60861        .048100
13.64441        .046100
13.6804	        .044900
13.71659        .041900
13.75296        .040000
13.78953        .037000
13.82629        .033700
13.86325        .028900
13.90041        .025800
13.93777        .025400
13.97532        .037300
14.01309        .047400
